## SPECTRUM TYPE:
Spectroscopic

## DATE:
11/9/2011

## COMMENTS:

## NUMBER OF SPECTRUM:
5

## ELLIPSOMETRIC CONFIGURATION:
0.00 ø :Modulator
+45.00 øAnalyser

## UNIT:
eV


# SPECTRUM:
1

# START TIME:
12:22:40

# END TIME:
12:34:41

# THETA ANGLE:
0.00 ø

# INCIDENCE ANGLE:
55.00 ø

# ACCUMULATION NUMBER:
1

# ELLIPSOMETRIC CONFIGURATION:
0.00 ø :Modulator
+45.00 øAnalyser

# INTEGRATION TIME:
500 ms

# FIRST POINT:
0.6000 eV

# LAST POINT:
6.5000 eV

# INCREMENT:
0.0250 eV

# NUMBER OF POINTS:
237

# DATA:
eV Hv S0 Psi Delta Is Ic 
0.600 3898.9 42.855 23.481 212.926 -0.39729 -0.61350 
0.625 3898.9 60.361 24.220 212.562 -0.40273 -0.63065 
0.650 3898.9 61.878 25.030 211.368 -0.39911 -0.65466 
0.675 3898.9 61.583 25.710 209.804 -0.38855 -0.67835 
0.700 3898.9 78.919 25.978 207.072 -0.35841 -0.70125 
0.725 3302.0 77.223 26.355 204.098 -0.32483 -0.72625 
0.750 3200.4 78.621 26.624 200.786 -0.28434 -0.74908 
0.775 2501.9 78.061 26.831 197.226 -0.23855 -0.76940 
0.800 1403.4 79.343 26.987 193.396 -0.18738 -0.78674 
0.825 1701.8 63.577 27.165 189.407 -0.13279 -0.80146 
0.850 1701.8 64.244 27.308 185.360 -0.07616 -0.81172 
0.875 1200.2 67.796 27.313 181.324 -0.01884 -0.81516 
0.900 1397.0 71.026 27.333 177.102 0.04124 -0.81476 
0.925 1397.0 60.010 27.310 172.974 0.09973 -0.80921 
0.950 1498.6 67.817 27.266 168.934 0.15632 -0.79929 
0.975 1098.6 65.112 27.133 164.784 0.21304 -0.78327 
1.000 1397.0 63.400 26.986 160.856 0.26521 -0.76400 
1.025 1397.0 69.864 26.753 156.955 0.31470 -0.73977 
1.050 997.0 80.030 26.616 153.270 0.36031 -0.71547 
1.075 1397.0 71.824 26.361 149.786 0.40043 -0.68762 
1.100 1397.0 78.638 26.054 146.112 0.44002 -0.65510 
1.125 1397.0 78.373 25.674 142.240 0.47822 -0.61742 
1.150 1295.4 71.724 25.175 137.383 0.52133 -0.56660 
1.175 1295.4 61.577 24.653 128.909 0.59000 -0.47623 
1.200 1695.5 67.509 25.127 112.783 0.70890 -0.29775 
1.225 1397.0 72.468 28.091 94.530 0.82822 -0.06562 
1.250 997.0 71.076 32.198 77.448 0.88025 0.19599 
1.275 1797.1 60.689 37.099 58.082 0.81672 0.50873 
1.300 2298.7 61.464 40.278 30.060 0.49411 0.85378 
1.325 3200.4 60.893 39.205 357.321 -0.04579 0.97854 
1.350 1898.7 77.375 41.412 318.481 -0.65767 0.74288 
1.375 2298.7 63.984 37.383 294.256 -0.87968 0.39638 
1.400 1898.7 77.988 32.992 273.006 -0.91218 0.04790 
1.425 4000.5 34.915 29.856 260.289 -0.85113 -0.14566 
1.450 4000.5 19.494 27.961 248.569 -0.77100 -0.30264 
1.475 780.0 58.039 25.940 237.307 -0.66209 -0.42494 
1.500 596.0 68.808 26.351 230.724 -0.61580 -0.50359 
1.525 697.0 70.555 25.948 223.175 -0.53842 -0.57386 
1.550 623.0 66.789 25.810 216.908 -0.47076 -0.62682 
1.575 660.0 64.905 25.832 210.741 -0.40095 -0.67418 
1.600 660.0 73.205 25.924 204.729 -0.32896 -0.71426 
1.625 594.0 74.702 25.989 199.338 -0.26087 -0.74333 
1.650 594.0 59.788 26.024 193.715 -0.18695 -0.76604 
1.675 594.0 75.408 26.061 188.506 -0.11675 -0.78063 
1.700 573.0 68.843 26.037 183.136 -0.04316 -0.78763 
1.725 561.0 68.497 26.025 177.934 0.02843 -0.78804 
1.750 551.0 70.814 25.929 172.696 0.09999 -0.78010 
1.775 541.0 70.918 25.708 167.535 0.16872 -0.76326 
1.800 521.0 69.565 25.466 162.161 0.23784 -0.73908 
1.825 521.0 75.606 25.177 156.754 0.30391 -0.70750 
1.850 510.0 70.419 24.820 151.211 0.36696 -0.66781 
1.875 510.0 75.412 24.487 145.567 0.42658 -0.62222 
1.900 498.0 67.612 24.070 139.245 0.48621 -0.56417 
1.925 498.0 70.716 23.569 132.827 0.53759 -0.49829 
1.950 498.0 71.604 23.118 125.494 0.58800 -0.41932 
1.975 498.0 71.308 22.686 117.219 0.63286 -0.32552 
2.000 498.0 67.684 22.317 107.546 0.66989 -0.21181 
2.025 498.0 59.842 21.864 95.401 0.68817 -0.06506 
2.050 519.0 68.169 21.421 79.999 0.66964 0.11809 
2.075 519.0 67.313 20.773 59.898 0.57377 0.33263 
2.100 519.0 61.804 19.783 34.098 0.35709 0.52746 
2.125 519.0 59.518 19.006 3.703 0.03978 0.61453 
2.150 519.0 63.221 18.169 331.367 -0.28395 0.52010 
2.175 519.0 72.783 17.712 301.232 -0.49563 0.30054 
2.200 504.0 69.592 17.772 277.681 -0.57610 0.07770 
2.225 489.0 69.427 18.055 258.713 -0.57795 -0.11535 
2.250 476.0 69.894 18.455 244.124 -0.54035 -0.26210 
2.275 464.0 70.008 18.886 232.811 -0.48796 -0.37024 
2.300 456.0 71.781 19.328 223.083 -0.42666 -0.45620 
2.325 445.0 69.819 19.712 214.774 -0.36221 -0.52165 
2.350 445.0 78.113 20.085 207.939 -0.30223 -0.56988 
2.375 432.0 69.628 20.346 201.815 -0.24230 -0.60531 
2.400 432.0 77.475 20.560 195.969 -0.18093 -0.63225 
2.425 419.0 68.232 20.695 190.487 -0.12034 -0.65014 
2.450 410.0 69.646 20.773 185.592 -0.06462 -0.66007 
2.475 410.0 76.369 20.727 180.957 -0.01106 -0.66193 
2.500 438.0 67.518 20.589 176.302 0.04247 -0.65703 
2.525 438.0 72.842 20.377 171.852 0.09252 -0.64622 
2.550 438.0 70.740 20.107 167.498 0.13976 -0.63032 
2.575 438.0 79.915 19.744 163.438 0.18127 -0.60953 
2.600 438.0 72.496 19.286 159.266 0.22074 -0.58312 
2.625 424.0 68.961 18.735 155.197 0.25520 -0.55223 
2.650 424.0 75.049 18.067 151.267 0.28347 -0.51705 
2.675 424.0 64.035 17.355 147.481 0.30611 -0.48016 
2.700 434.0 68.949 16.438 143.562 0.32242 -0.43671 
2.725 434.0 62.930 15.356 139.599 0.33102 -0.38894 
2.750 434.0 64.972 14.166 136.023 0.32954 -0.34152 
2.775 447.0 68.744 12.867 132.999 0.31756 -0.29611 
2.800 447.0 65.238 11.471 130.832 0.29494 -0.25487 
2.825 447.0 63.512 9.894 129.871 0.25983 -0.21703 
2.850 447.0 59.529 8.279 131.440 0.21364 -0.18861 
2.875 458.0 68.445 6.851 137.184 0.16099 -0.17376 
2.900 458.0 66.833 5.923 147.798 0.10940 -0.17371 
2.925 458.0 65.874 5.574 161.726 0.06062 -0.18358 
2.950 458.0 68.357 6.042 175.980 0.01468 -0.20883 
2.975 458.0 66.663 6.914 184.771 -0.01988 -0.23819 
3.000 458.0 67.352 8.126 189.145 -0.04448 -0.27630 
3.025 458.0 67.310 9.178 190.580 -0.05782 -0.30957 
3.050 458.0 67.403 10.217 190.207 -0.06187 -0.34361 
3.075 458.0 66.824 11.124 188.985 -0.05913 -0.37398 
3.100 442.0 69.302 12.006 187.063 -0.05003 -0.40385 
3.125 442.0 70.986 12.706 184.893 -0.03660 -0.42757 
3.150 442.0 71.021 13.314 182.551 -0.01995 -0.44775 
3.175 442.0 69.327 13.820 180.067 -0.00054 -0.46393 
3.200 442.0 68.720 14.207 177.711 0.01900 -0.47546 
3.225 442.0 67.628 14.482 175.339 0.03935 -0.48265 
3.250 442.0 67.386 14.716 172.894 0.06079 -0.48760 
3.275 442.0 66.328 14.859 170.382 0.08282 -0.48876 
3.300 442.0 63.887 14.903 168.028 0.10310 -0.48624 
3.325 442.0 59.748 14.864 165.617 0.12318 -0.48035 
3.350 455.0 69.901 14.750 163.392 0.14074 -0.47189 
3.375 455.0 69.840 14.536 161.369 0.15524 -0.46044 
3.400 455.0 71.306 14.268 159.621 0.16636 -0.44782 
3.425 455.0 70.075 14.019 158.332 0.17355 -0.43683 
3.450 455.0 68.369 13.698 157.206 0.17827 -0.42421 
3.475 455.0 66.848 13.392 156.433 0.18016 -0.41303 
3.500 455.0 64.291 13.100 155.858 0.18058 -0.40290 
3.525 455.0 61.790 12.803 155.529 0.17903 -0.39336 
3.550 455.0 59.781 12.506 155.493 0.17538 -0.38470 
3.575 455.0 58.411 12.282 155.610 0.17167 -0.37862 
3.600 467.0 68.584 12.089 156.035 0.16636 -0.37427 
3.625 467.0 67.159 11.924 156.383 0.16198 -0.37045 
3.650 467.0 66.600 11.775 157.105 0.15545 -0.36808 
3.675 467.0 65.163 11.706 157.790 0.15020 -0.36786 
3.700 467.0 64.714 11.659 158.441 0.14545 -0.36814 
3.725 467.0 63.896 11.620 159.142 0.14049 -0.36871 
3.750 467.0 62.642 11.646 159.717 0.13708 -0.37091 
3.775 467.0 62.260 11.694 160.329 0.13363 -0.37380 
3.800 467.0 60.003 11.758 160.653 0.13219 -0.37648 
3.825 477.0 67.707 11.838 160.950 0.13107 -0.37957 
3.850 477.0 64.109 11.923 161.207 0.13024 -0.38274 
3.875 477.0 59.218 12.050 161.467 0.12979 -0.38716 
3.900 489.0 66.238 12.130 161.417 0.13093 -0.38945 
3.925 489.0 61.603 12.212 161.415 0.13178 -0.39193 
3.950 499.0 68.258 12.331 161.112 0.13508 -0.39480 
3.975 499.0 63.770 12.407 161.009 0.13657 -0.39685 
4.000 499.0 59.752 12.468 160.661 0.13962 -0.39782 
4.025 512.0 68.952 12.537 160.384 0.14227 -0.39920 
4.050 512.0 64.809 12.575 159.814 0.14665 -0.39889 
4.075 512.0 61.846 12.638 159.526 0.14934 -0.40000 
4.100 524.0 69.026 12.718 159.012 0.15384 -0.40101 
4.125 524.0 65.437 12.670 158.721 0.15532 -0.39881 
4.150 524.0 60.879 12.764 158.338 0.15908 -0.40052 
4.175 535.0 67.138 12.797 157.983 0.16195 -0.40048 
4.200 535.0 65.579 12.760 157.342 0.16597 -0.39757 
4.225 535.0 63.611 12.761 156.991 0.16841 -0.39657 
4.250 535.0 60.302 12.756 156.574 0.17123 -0.39520 
4.275 547.0 68.749 12.787 156.460 0.17241 -0.39575 
4.300 562.0 70.234 12.667 155.847 0.17508 -0.39043 
4.325 562.0 74.022 12.628 155.378 0.17776 -0.38787 
4.350 562.0 77.772 12.573 155.229 0.17804 -0.38582 
4.375 562.0 79.660 12.536 155.019 0.17896 -0.38410 
4.400 550.0 70.791 12.491 154.773 0.18001 -0.38207 
4.425 550.0 71.686 12.502 154.760 0.18023 -0.38232 
4.450 550.0 73.465 12.417 154.568 0.18036 -0.37929 
4.475 550.0 73.595 12.424 154.397 0.18159 -0.37896 
4.500 550.0 74.619 12.437 154.465 0.18132 -0.37955 
4.525 550.0 74.116 12.341 154.436 0.18020 -0.37672 
4.550 550.0 74.455 12.353 154.299 0.18127 -0.37663 
4.575 550.0 73.729 12.410 154.208 0.18264 -0.37794 
4.600 550.0 73.143 12.321 154.138 0.18188 -0.37520 
4.625 550.0 71.243 12.347 154.188 0.18190 -0.37609 
4.650 550.0 69.320 12.343 153.959 0.18335 -0.37524 
4.675 550.0 68.236 12.370 153.971 0.18365 -0.37605 
4.700 550.0 66.512 12.335 153.790 0.18435 -0.37448 
4.725 550.0 65.375 12.410 153.967 0.18424 -0.37719 
4.750 550.0 62.976 12.430 153.754 0.18591 -0.37705 
4.775 550.0 61.174 12.423 153.569 0.18703 -0.37626 
4.800 550.0 59.701 12.427 153.665 0.18645 -0.37668 
4.825 563.0 68.211 12.509 153.459 0.18896 -0.37832 
4.850 563.0 66.807 12.440 153.515 0.18763 -0.37658 
4.875 563.0 64.803 12.507 153.593 0.18805 -0.37872 
4.900 563.0 62.812 12.502 153.228 0.19039 -0.37738 
4.925 563.0 61.247 12.510 153.016 0.19191 -0.37691 
4.950 576.0 71.264 12.505 153.029 0.19174 -0.37679 
4.975 576.0 69.001 12.546 152.964 0.19276 -0.37772 
5.000 576.0 67.918 12.477 152.511 0.19473 -0.37425 
5.025 576.0 65.568 12.522 152.609 0.19475 -0.37586 
5.050 576.0 63.589 12.517 152.455 0.19568 -0.37519 
5.075 576.0 61.251 12.533 152.323 0.19678 -0.37519 
5.100 576.0 59.271 12.611 152.415 0.19733 -0.37769 
5.125 589.0 68.294 12.687 152.156 0.20016 -0.37892 
5.150 589.0 65.610 12.631 151.944 0.20072 -0.37661 
5.175 589.0 62.785 12.568 151.722 0.20123 -0.37407 
5.200 589.0 60.831 12.657 151.770 0.20226 -0.37673 
5.225 601.0 68.628 12.558 151.481 0.20266 -0.37296 
5.250 601.0 65.254 12.683 151.311 0.20565 -0.37580 
5.275 601.0 62.767 12.599 151.201 0.20509 -0.37308 
5.300 601.0 60.688 12.624 151.006 0.20675 -0.37309 
5.325 613.0 68.333 12.621 150.793 0.20809 -0.37223 
5.350 613.0 66.455 12.637 150.805 0.20825 -0.37270 
5.375 613.0 63.554 12.655 150.763 0.20881 -0.37306 
5.400 613.0 62.476 12.695 150.816 0.20909 -0.37436 
5.425 613.0 59.874 12.614 150.363 0.21077 -0.37047 
5.450 613.0 58.291 12.677 150.622 0.21007 -0.37315 
5.475 631.0 70.559 12.800 150.463 0.21301 -0.37592 
5.500 631.0 68.192 12.662 150.196 0.21260 -0.37116 
5.525 631.0 65.377 12.764 149.800 0.21678 -0.37247 
5.550 631.0 62.590 12.727 149.819 0.21607 -0.37153 
5.575 631.0 60.812 12.752 149.728 0.21706 -0.37186 
5.600 647.0 69.648 12.738 149.632 0.21745 -0.37112 
5.625 647.0 66.661 12.883 149.859 0.21827 -0.37592 
5.650 647.0 63.843 12.763 149.475 0.21887 -0.37119 
5.675 647.0 60.068 12.743 149.262 0.21993 -0.36984 
5.700 662.0 68.056 12.759 149.428 0.21911 -0.37092 
5.725 662.0 64.993 12.852 149.034 0.22317 -0.37191 
5.750 662.0 61.685 12.832 148.893 0.22376 -0.37083 
5.775 680.0 71.573 12.743 148.482 0.22495 -0.36682 
5.800 680.0 66.858 12.820 148.248 0.22772 -0.36796 
5.825 680.0 62.606 12.808 148.564 0.22548 -0.36888 
5.850 695.0 68.604 12.808 148.402 0.22653 -0.36825 
5.875 695.0 63.558 12.723 147.915 0.22822 -0.36403 
5.900 695.0 59.034 12.931 148.407 0.22853 -0.37156 
5.925 715.0 67.645 13.019 147.912 0.23319 -0.37190 
5.950 715.0 63.107 12.869 147.873 0.23093 -0.36775 
5.975 730.0 67.282 12.922 147.816 0.23218 -0.36893 
6.000 730.0 61.755 12.867 147.477 0.23343 -0.36609 
6.025 747.0 67.433 12.998 148.007 0.23223 -0.37175 
6.050 747.0 63.071 12.852 147.276 0.23446 -0.36487 
6.075 764.0 68.868 12.958 146.889 0.23875 -0.36608 
6.100 764.0 63.672 13.016 146.614 0.24150 -0.36645 
6.125 764.0 58.170 13.118 147.125 0.23995 -0.37127 
6.150 780.0 62.563 12.793 147.273 0.23349 -0.36332 
6.175 780.0 58.905 13.024 147.248 0.23758 -0.36932 
6.200 780.0 55.107 12.913 146.776 0.23870 -0.36443 
6.225 780.0 51.290 12.943 146.117 0.24340 -0.36244 
6.250 780.0 47.286 12.806 146.540 0.23834 -0.36064 
6.275 780.0 44.168 13.079 145.603 0.24905 -0.36377 
6.300 780.0 40.829 13.120 144.469 0.25694 -0.35980 
6.325 780.0 37.709 12.876 145.461 0.24634 -0.35791 
6.350 780.0 34.280 12.852 145.849 0.24349 -0.35894 
6.375 780.0 31.749 12.880 145.279 0.24753 -0.35721 
6.400 780.0 28.644 12.725 145.659 0.24241 -0.35482 
6.425 780.0 25.485 13.035 145.257 0.25046 -0.36112 
6.450 780.0 22.207 12.896 147.002 0.23697 -0.36493 
6.475 780.0 19.793 12.722 145.384 0.24406 -0.35358 
6.500 780.0 16.996 12.569 145.566 0.24021 -0.35037 

# MINIMA:
0.600 410.0 16.996 5.574 3.703 -0.91218 -0.81516 

# MAXIMA:
6.500 4000.5 80.030 41.412 357.321 0.88025 0.97854 

# PEAKS:

# END SPECTRUM


# SPECTRUM:
2

# START TIME:
12:35:31

# END TIME:
12:46:16

# THETA ANGLE:
0.00 ø

# INCIDENCE ANGLE:
60.00 ø

# ACCUMULATION NUMBER:
1

# ELLIPSOMETRIC CONFIGURATION:
0.00 ø :Modulator
+45.00 øAnalyser

# INTEGRATION TIME:
500 ms

# FIRST POINT:
0.6000 eV

# LAST POINT:
6.5000 eV

# INCREMENT:
0.0250 eV

# NUMBER OF POINTS:
237

# DATA:
eV Hv S0 Psi Delta Is Ic 
0.600 3797.3 60.800 18.677 227.712 -0.44885 -0.40825 
0.625 3498.9 79.192 19.722 227.126 -0.46559 -0.43227 
0.650 3397.3 77.832 20.706 226.384 -0.47889 -0.45631 
0.675 3397.3 74.652 21.428 224.061 -0.47300 -0.48876 
0.700 2895.6 80.021 21.590 220.407 -0.44358 -0.52106 
0.725 2495.6 78.203 21.933 216.116 -0.40846 -0.55981 
0.750 2495.6 77.449 22.171 211.602 -0.36625 -0.59529 
0.775 2095.5 78.382 22.284 206.804 -0.31645 -0.62635 
0.800 1295.4 75.851 22.426 201.589 -0.25950 -0.65579 
0.825 1593.9 63.236 22.497 196.052 -0.19550 -0.67948 
0.850 1593.9 62.407 22.523 190.556 -0.12965 -0.69570 
0.875 1193.8 74.334 22.512 184.846 -0.05976 -0.70486 
0.900 1295.4 64.763 22.590 179.112 0.01099 -0.70924 
0.925 1397.0 65.972 22.642 173.360 0.08217 -0.70583 
0.950 1397.0 62.150 22.665 167.603 0.15267 -0.69458 
0.975 1098.6 74.383 22.637 161.763 0.22235 -0.67480 
1.000 1397.0 70.229 22.589 156.344 0.28460 -0.64971 
1.025 1397.0 77.670 22.569 150.947 0.34421 -0.61961 
1.050 895.4 70.406 22.428 145.549 0.39902 -0.58163 
1.075 1295.4 66.839 22.374 140.585 0.44699 -0.54389 
1.100 1295.4 74.620 22.251 135.304 0.49300 -0.49826 
1.125 1295.4 73.788 22.126 129.650 0.53729 -0.44528 
1.150 1193.8 68.399 22.092 122.965 0.58475 -0.37923 
1.175 1193.8 63.536 22.400 112.537 0.65082 -0.27007 
1.200 1492.3 70.929 24.375 97.016 0.74620 -0.09184 
1.225 1193.8 72.038 27.595 83.069 0.81504 0.09907 
1.250 793.8 60.940 31.719 69.963 0.84031 0.30647 
1.275 1492.3 71.766 35.983 56.528 0.79318 0.52444 
1.300 1492.3 61.144 40.141 38.344 0.61147 0.77305 
1.325 1993.9 62.748 41.539 16.243 0.27767 0.95309 
1.350 1397.0 73.609 43.572 346.365 -0.23545 0.97061 
1.375 1797.1 62.399 40.503 322.984 -0.59463 0.78865 
1.400 1600.2 74.554 36.827 300.920 -0.82321 0.49306 
1.425 3898.9 38.836 32.405 287.444 -0.86328 0.27127 
1.450 4000.5 21.008 29.107 274.853 -0.84697 0.07191 
1.475 780.0 79.929 25.227 262.339 -0.76422 -0.10280 
1.500 566.0 63.486 25.014 254.551 -0.73866 -0.20414 
1.525 673.0 73.455 23.576 245.774 -0.66860 -0.30084 
1.550 599.0 64.839 22.909 237.645 -0.60578 -0.38378 
1.575 641.0 65.994 22.264 229.287 -0.53154 -0.45740 
1.600 641.0 72.410 21.862 221.036 -0.45379 -0.52136 
1.625 579.0 75.197 21.620 213.911 -0.38219 -0.56853 
1.650 579.0 59.064 21.393 205.775 -0.29537 -0.61169 
1.675 579.0 72.361 21.212 198.387 -0.21279 -0.64016 
1.700 564.0 70.763 21.172 190.741 -0.12553 -0.66178 
1.725 552.0 69.336 21.023 183.394 -0.03964 -0.66855 
1.750 540.0 68.897 20.978 176.021 0.04640 -0.66694 
1.775 529.0 68.545 20.941 168.673 0.13113 -0.65459 
1.800 512.0 70.053 20.828 161.018 0.21620 -0.62852 
1.825 512.0 77.466 20.763 153.805 0.29264 -0.59487 
1.850 497.0 68.997 20.674 146.060 0.36885 -0.54808 
1.875 497.0 74.727 20.593 138.554 0.43586 -0.49360 
1.900 487.0 71.507 20.532 130.610 0.49870 -0.42759 
1.925 487.0 76.574 20.596 122.857 0.55322 -0.35730 
1.950 477.0 68.643 20.602 114.371 0.60005 -0.27183 
1.975 477.0 71.308 20.776 105.517 0.63914 -0.17745 
2.000 477.0 71.175 21.129 95.721 0.66911 -0.06704 
2.025 477.0 66.541 21.548 85.167 0.68079 0.05756 
2.050 487.0 69.031 22.182 73.288 0.66969 0.20107 
2.075 487.0 70.905 22.748 59.365 0.61366 0.36342 
2.100 487.0 66.740 23.435 42.525 0.49329 0.53786 
2.125 487.0 62.770 23.664 23.785 0.29653 0.67280 
2.150 487.0 61.759 23.278 2.623 0.03323 0.72529 
2.175 487.0 64.324 22.085 340.984 -0.22704 0.65876 
2.200 487.0 70.571 20.514 320.831 -0.41461 0.50893 
2.225 476.0 68.228 18.875 302.168 -0.51824 0.32595 
2.250 467.0 69.292 17.483 285.837 -0.55133 0.15639 
2.275 459.0 70.790 16.466 271.295 -0.54352 0.01228 
2.300 449.0 69.939 15.663 257.832 -0.50821 -0.10958 
2.325 441.0 69.435 15.131 245.175 -0.45737 -0.21158 
2.350 441.0 78.372 14.813 234.034 -0.40009 -0.29032 
2.375 428.0 69.780 14.617 224.137 -0.34009 -0.35049 
2.400 428.0 76.450 14.527 214.529 -0.27527 -0.40008 
2.425 417.0 70.904 14.461 205.547 -0.20856 -0.43633 
2.450 407.0 70.313 14.446 197.477 -0.14511 -0.46086 
2.475 407.0 76.878 14.402 189.848 -0.08241 -0.47472 
2.500 423.0 67.589 14.321 182.277 -0.01905 -0.47895 
2.525 423.0 73.143 14.248 175.135 0.04046 -0.47537 
2.550 423.0 71.839 14.106 168.220 0.09651 -0.46278 
2.575 416.0 71.035 13.905 161.588 0.14735 -0.44264 
2.600 416.0 65.917 13.735 154.900 0.19568 -0.41773 
2.625 407.0 69.221 13.464 148.261 0.23824 -0.38516 
2.650 407.0 75.845 13.128 141.778 0.27371 -0.34755 
2.675 407.0 66.127 12.781 135.617 0.30180 -0.30837 
2.700 407.0 60.933 12.371 129.129 0.32466 -0.26412 
2.725 417.0 67.843 11.789 122.056 0.33900 -0.21229 
2.750 417.0 71.013 11.179 115.137 0.34437 -0.16159 
2.775 417.0 61.801 10.551 108.976 0.34045 -0.11707 
2.800 427.0 70.384 9.747 101.819 0.32663 -0.06835 
2.825 427.0 69.505 8.857 94.689 0.30325 -0.02487 
2.850 427.0 65.144 7.797 87.154 0.26848 0.01335 
2.875 427.0 62.538 6.669 79.157 0.22659 0.04340 
2.900 427.0 61.056 5.492 71.654 0.18086 0.05997 
2.925 436.0 69.536 4.305 64.528 0.13515 0.06438 
2.950 436.0 70.062 2.972 56.072 0.08593 0.05780 
2.975 436.0 67.966 1.709 46.990 0.04359 0.04066 
3.000 436.0 66.868 0.464 24.918 0.00682 0.01469 
3.025 436.0 65.769 0.734 228.359 -0.01915 -0.01703 
3.050 436.0 64.978 1.795 214.882 -0.03580 -0.05135 
3.075 436.0 64.504 2.750 207.235 -0.04387 -0.08523 
3.100 426.0 71.140 3.675 200.789 -0.04540 -0.11959 
3.125 426.0 72.176 4.496 194.864 -0.04009 -0.15106 
3.150 426.0 70.540 5.227 189.355 -0.02950 -0.17903 
3.175 426.0 69.171 5.863 184.291 -0.01521 -0.20266 
3.200 426.0 67.906 6.402 179.438 0.00217 -0.22161 
3.225 426.0 67.249 6.857 174.728 0.02178 -0.23608 
3.250 426.0 66.244 7.300 170.342 0.04229 -0.24851 
3.275 426.0 65.372 7.628 165.591 0.06548 -0.25486 
3.300 426.0 62.042 7.919 161.301 0.08750 -0.25852 
3.325 426.0 58.731 8.099 156.816 0.10982 -0.25643 
3.350 437.0 67.243 8.249 152.379 0.13167 -0.25163 
3.375 437.0 67.798 8.282 148.361 0.14954 -0.24270 
3.400 437.0 68.984 8.239 144.801 0.16349 -0.23178 
3.425 437.0 68.713 8.162 141.543 0.17481 -0.22010 
3.450 437.0 67.455 8.038 138.716 0.18269 -0.20807 
3.475 437.0 65.881 7.853 136.097 0.18772 -0.19505 
3.500 437.0 63.671 7.667 134.070 0.19000 -0.18393 
3.525 437.0 61.172 7.486 131.990 0.19201 -0.17283 
3.550 446.0 68.603 7.279 130.416 0.19136 -0.16295 
3.575 446.0 66.782 7.078 129.223 0.18946 -0.15464 
3.600 446.0 64.882 6.874 128.367 0.18632 -0.14750 
3.625 446.0 63.152 6.670 127.731 0.18248 -0.14119 
3.650 446.0 61.593 6.469 127.315 0.17806 -0.13571 
3.675 446.0 60.707 6.333 127.680 0.17354 -0.13403 
3.700 446.0 60.007 6.154 127.761 0.16852 -0.13053 
3.725 455.0 69.219 6.066 128.567 0.16432 -0.13102 
3.750 455.0 67.578 5.944 129.019 0.16005 -0.12969 
3.775 455.0 65.692 5.904 129.880 0.15703 -0.13121 
3.800 455.0 63.726 5.869 130.896 0.15377 -0.13318 
3.825 455.0 60.808 5.866 131.881 0.15139 -0.13574 
3.850 467.0 69.773 5.897 132.728 0.15014 -0.13868 
3.875 467.0 65.018 5.925 133.287 0.14949 -0.14081 
3.900 467.0 60.126 5.985 134.016 0.14916 -0.14412 
3.925 480.0 68.232 6.041 134.515 0.14925 -0.14675 
3.950 480.0 63.580 6.132 134.668 0.15108 -0.14934 
3.975 480.0 59.836 6.209 135.050 0.15193 -0.15219 
4.000 492.0 67.744 6.287 134.845 0.15436 -0.15353 
4.025 492.0 64.312 6.381 134.811 0.15672 -0.15569 
4.050 492.0 60.273 6.490 134.673 0.15973 -0.15792 
4.075 503.0 66.691 6.569 134.245 0.16282 -0.15858 
4.100 503.0 63.090 6.653 133.891 0.16587 -0.15957 
4.125 514.0 69.509 6.729 133.882 0.16776 -0.16133 
4.150 514.0 65.390 6.798 132.914 0.17217 -0.16007 
4.175 514.0 62.034 6.829 132.233 0.17484 -0.15872 
4.200 514.0 59.321 6.915 131.915 0.17787 -0.15968 
4.225 527.0 68.952 6.997 131.524 0.18105 -0.16032 
4.250 527.0 66.898 6.987 130.557 0.18347 -0.15701 
4.275 527.0 63.644 7.061 129.846 0.18733 -0.15633 
4.300 527.0 62.615 7.048 129.291 0.18849 -0.15423 
4.325 527.0 66.071 7.044 128.559 0.19034 -0.15172 
4.350 527.0 69.917 7.082 128.103 0.19255 -0.15100 
4.375 527.0 72.114 7.044 127.156 0.19399 -0.14701 
4.400 527.0 74.591 7.019 126.850 0.19409 -0.14546 
4.425 527.0 76.504 7.040 126.303 0.19605 -0.14403 
4.450 527.0 77.115 7.052 126.422 0.19608 -0.14468 
4.475 527.0 77.676 7.034 125.978 0.19670 -0.14279 
4.500 527.0 78.605 7.033 125.119 0.19879 -0.13981 
4.525 516.0 67.595 7.042 124.940 0.19949 -0.13937 
4.550 516.0 66.901 7.050 125.245 0.19896 -0.14058 
4.575 516.0 65.830 7.049 124.462 0.20085 -0.13784 
4.600 516.0 65.317 7.018 124.672 0.19945 -0.13796 
4.625 516.0 63.997 7.016 124.386 0.20010 -0.13694 
4.650 516.0 62.468 7.050 124.109 0.20171 -0.13662 
4.675 516.0 61.264 7.082 124.689 0.20119 -0.13926 
4.700 528.0 71.084 7.036 123.818 0.20200 -0.13532 
4.725 528.0 69.623 7.066 124.031 0.20233 -0.13663 
4.750 528.0 67.486 7.079 124.323 0.20202 -0.13792 
4.775 528.0 64.969 7.088 123.995 0.20304 -0.13693 
4.800 528.0 62.692 7.087 123.228 0.20484 -0.13419 
4.825 539.0 70.849 7.110 123.543 0.20473 -0.13573 
4.850 539.0 68.733 7.161 123.448 0.20642 -0.13635 
4.875 539.0 66.563 7.183 123.381 0.20719 -0.13652 
4.900 539.0 64.292 7.186 123.048 0.20807 -0.13537 
4.925 539.0 62.783 7.245 123.225 0.20932 -0.13710 
4.950 539.0 60.454 7.251 123.180 0.20959 -0.13705 
4.975 550.0 68.574 7.223 122.526 0.21033 -0.13413 
5.000 550.0 66.745 7.314 122.544 0.21289 -0.13586 
5.025 550.0 64.504 7.304 122.936 0.21168 -0.13713 
5.050 550.0 62.928 7.352 122.681 0.21365 -0.13706 
5.075 561.0 70.384 7.374 122.550 0.21457 -0.13696 
5.100 561.0 68.351 7.377 122.014 0.21595 -0.13501 
5.125 561.0 65.575 7.367 121.861 0.21602 -0.13426 
5.150 561.0 62.661 7.452 122.163 0.21772 -0.13691 
5.175 561.0 60.683 7.431 121.986 0.21754 -0.13586 
5.200 573.0 68.433 7.511 121.589 0.22079 -0.13577 
5.225 573.0 65.418 7.553 121.521 0.22215 -0.13624 
5.250 573.0 63.182 7.517 120.799 0.22282 -0.13282 
5.275 573.0 60.358 7.625 121.640 0.22395 -0.13799 
5.300 586.0 69.158 7.626 120.902 0.22572 -0.13510 
5.325 586.0 66.581 7.626 121.419 0.22449 -0.13713 
5.350 586.0 64.317 7.582 120.691 0.22494 -0.13351 
5.375 586.0 62.015 7.609 119.990 0.22735 -0.13121 
5.400 586.0 60.147 7.582 119.838 0.22691 -0.13015 
5.425 600.0 69.623 7.671 120.545 0.22786 -0.13446 
5.450 600.0 66.913 7.697 120.069 0.22974 -0.13301 
5.475 600.0 64.046 7.777 119.713 0.23288 -0.13290 
5.500 600.0 61.780 7.726 119.432 0.23205 -0.13092 
5.525 600.0 59.499 7.821 119.589 0.23447 -0.13314 
5.550 614.0 67.926 7.744 119.256 0.23297 -0.13050 
5.575 614.0 64.916 7.784 119.201 0.23428 -0.13094 
5.600 614.0 62.298 7.764 119.454 0.23312 -0.13164 
5.625 614.0 58.901 7.833 119.167 0.23578 -0.13159 
5.650 628.0 66.794 7.912 118.592 0.23942 -0.13049 
5.675 628.0 64.034 7.904 118.326 0.23980 -0.12926 
5.700 628.0 60.364 7.958 118.781 0.24035 -0.13203 
5.725 642.0 67.482 8.000 118.171 0.24299 -0.13013 
5.750 642.0 63.690 7.974 117.756 0.24316 -0.12797 
5.775 642.0 59.861 8.066 118.195 0.24488 -0.13128 
5.800 661.0 69.659 8.003 117.928 0.24362 -0.12914 
5.825 661.0 65.937 8.107 118.613 0.24512 -0.13372 
5.850 661.0 60.773 8.081 117.544 0.24681 -0.12873 
5.875 680.0 70.830 8.112 118.023 0.24663 -0.13127 
5.900 680.0 65.535 8.086 117.028 0.24812 -0.12658 
5.925 680.0 60.472 8.139 117.319 0.24904 -0.12864 
5.950 697.0 66.025 8.140 117.168 0.24941 -0.12800 
5.975 697.0 61.238 8.141 116.821 0.25020 -0.12650 
6.000 714.0 67.345 8.322 117.047 0.25508 -0.13024 
6.025 714.0 61.221 8.233 116.950 0.25267 -0.12847 
6.050 729.0 65.927 8.424 116.900 0.25846 -0.13112 
6.075 729.0 61.509 8.234 115.694 0.25544 -0.12290 
6.100 748.0 68.647 8.431 117.232 0.25790 -0.13273 
6.125 748.0 63.269 8.350 115.383 0.25963 -0.12319 
6.150 748.0 58.364 8.299 114.703 0.25950 -0.11937 
6.175 765.0 64.175 8.349 117.056 0.25590 -0.13070 
6.200 779.0 67.903 8.416 113.836 0.26488 -0.11702 
6.225 779.0 63.405 8.456 114.923 0.26383 -0.12259 
6.250 780.0 59.319 8.273 114.267 0.25963 -0.11705 
6.275 780.0 54.929 8.484 114.506 0.26555 -0.12105 
6.300 780.0 51.271 8.245 115.591 0.25600 -0.12261 
6.325 780.0 47.190 8.534 116.249 0.26324 -0.12981 
6.350 780.0 42.868 8.557 113.202 0.27046 -0.11593 
6.375 780.0 38.893 8.621 112.400 0.27404 -0.11295 
6.400 780.0 35.340 8.472 114.157 0.26591 -0.11926 
6.425 780.0 31.639 8.659 112.697 0.27462 -0.11486 
6.450 780.0 27.787 8.437 113.678 0.26585 -0.11658 
6.475 780.0 24.445 8.234 113.898 0.25919 -0.11484 
6.500 780.0 21.002 8.328 113.809 0.26224 -0.11571 

# MINIMA:
0.600 407.0 21.002 0.464 2.623 -0.86328 -0.70924 

# MAXIMA:
6.500 4000.5 80.021 43.572 346.365 0.84031 0.97061 

# PEAKS:

# END SPECTRUM


# SPECTRUM:
3

# START TIME:
12:47:03

# END TIME:
12:57:36

# THETA ANGLE:
0.00 ø

# INCIDENCE ANGLE:
65.00 ø

# ACCUMULATION NUMBER:
1

# ELLIPSOMETRIC CONFIGURATION:
0.00 ø :Modulator
+45.00 øAnalyser

# INTEGRATION TIME:
500 ms

# FIRST POINT:
0.6000 eV

# LAST POINT:
6.5000 eV

# INCREMENT:
0.0250 eV

# NUMBER OF POINTS:
237

# DATA:
eV Hv S0 Psi Delta Is Ic 
0.600 2597.2 62.036 14.742 254.295 -0.47382 -0.13323 
0.625 2298.7 78.021 15.869 253.189 -0.50354 -0.15213 
0.650 2298.7 80.171 16.532 250.410 -0.51401 -0.18293 
0.675 2298.7 74.391 16.615 245.871 -0.50012 -0.22401 
0.700 2000.3 83.754 17.480 241.972 -0.50581 -0.26926 
0.725 1803.4 79.835 17.563 236.680 -0.48080 -0.31607 
0.750 1803.4 78.472 17.434 230.812 -0.44311 -0.36124 
0.775 1606.6 75.536 17.263 223.823 -0.39246 -0.40892 
0.800 1104.9 71.218 16.985 216.853 -0.33512 -0.44710 
0.825 1505.0 72.620 16.949 208.573 -0.26675 -0.48980 
0.850 1505.0 67.578 16.740 200.459 -0.19282 -0.51686 
0.875 1104.9 73.458 16.525 192.051 -0.11386 -0.53336 
0.900 1206.5 61.945 16.493 182.991 -0.02841 -0.54370 
0.925 1308.1 62.976 16.577 174.194 0.05532 -0.54409 
0.950 1409.7 69.551 16.627 165.258 0.13954 -0.53031 
0.975 1009.7 66.184 16.912 156.721 0.21999 -0.51133 
1.000 1308.1 63.214 17.055 148.245 0.29513 -0.47683 
1.025 1308.1 71.386 17.397 140.336 0.36423 -0.43928 
1.050 812.8 61.575 17.715 132.947 0.42433 -0.39497 
1.075 1212.9 62.169 18.043 125.689 0.47838 -0.34362 
1.100 1212.9 69.843 18.449 118.613 0.52706 -0.28751 
1.125 1212.9 71.381 18.976 111.370 0.57271 -0.22410 
1.150 1111.3 67.421 19.698 103.192 0.61793 -0.14484 
1.175 1111.3 65.841 21.262 92.071 0.67545 -0.02442 
1.200 1308.1 67.051 24.331 79.929 0.73927 0.13130 
1.225 1009.7 67.759 27.984 69.502 0.77625 0.29019 
1.250 711.2 66.202 31.518 60.293 0.77415 0.44170 
1.275 1212.9 64.109 35.015 50.897 0.72935 0.59280 
1.300 1314.5 73.224 38.818 38.675 0.61041 0.76260 
1.325 1511.3 62.218 41.946 23.789 0.40108 0.90984 
1.350 1111.3 68.386 42.570 3.073 0.05342 0.99497 
1.375 1612.9 70.430 41.719 344.234 -0.26993 0.95607 
1.400 1416.1 77.743 40.720 324.168 -0.57889 0.80171 
1.425 3918.0 48.938 35.691 311.134 -0.71376 0.62340 
1.450 3918.0 24.102 32.104 299.071 -0.78695 0.43749 
1.475 780.0 105.547 27.463 289.263 -0.77258 0.26999 
1.500 545.0 62.226 26.453 280.950 -0.78313 0.15151 
1.525 652.0 73.432 23.846 272.794 -0.73866 0.03605 
1.550 590.0 73.041 22.149 264.605 -0.69531 -0.06566 
1.575 624.0 66.431 20.442 255.921 -0.63487 -0.15922 
1.600 624.0 70.962 19.027 246.988 -0.56736 -0.24097 
1.625 566.0 75.486 17.969 237.959 -0.49752 -0.31137 
1.650 580.0 68.976 17.035 227.414 -0.41245 -0.37908 
1.675 568.0 70.794 16.124 217.190 -0.32253 -0.42507 
1.700 555.0 70.273 15.571 206.000 -0.22671 -0.46482 
1.725 555.0 79.647 15.181 194.632 -0.12769 -0.48907 
1.750 534.0 69.701 14.879 182.942 -0.02547 -0.49570 
1.775 534.0 79.671 14.832 171.376 0.07421 -0.48931 
1.800 505.0 69.862 14.989 159.611 0.17408 -0.46836 
1.825 505.0 76.282 15.209 148.331 0.26582 -0.43091 
1.850 494.0 73.073 15.654 137.323 0.35225 -0.38204 
1.875 485.0 70.614 16.217 127.050 0.42806 -0.32315 
1.900 476.0 69.353 16.891 116.965 0.49559 -0.25214 
1.925 476.0 75.760 17.605 107.484 0.54994 -0.17323 
1.950 466.0 69.333 18.460 98.418 0.59424 -0.08794 
1.975 466.0 75.284 19.448 89.364 0.62786 0.00697 
2.000 466.0 77.268 20.556 80.646 0.64878 0.10687 
2.025 466.0 75.544 21.742 71.796 0.65371 0.21498 
2.050 466.0 69.405 23.057 62.796 0.64100 0.32948 
2.075 466.0 74.206 24.448 52.691 0.59932 0.45671 
2.100 466.0 72.869 25.803 41.466 0.51899 0.58731 
2.125 466.0 69.425 26.881 29.372 0.39560 0.70289 
2.150 466.0 67.143 27.512 15.667 0.22128 0.78894 
2.175 466.0 66.455 27.226 0.974 0.01383 0.81351 
2.200 466.0 69.122 26.036 346.807 -0.18003 0.76797 
2.225 466.0 74.191 24.169 333.038 -0.33873 0.66588 
2.250 455.0 68.988 21.954 320.678 -0.43945 0.53650 
2.275 455.0 75.546 19.722 309.613 -0.48944 0.40508 
2.300 445.0 70.914 17.495 298.758 -0.50271 0.27589 
2.325 445.0 79.862 15.376 288.190 -0.48577 0.15961 
2.350 433.0 71.339 13.594 278.100 -0.45236 0.06438 
2.375 433.0 77.427 12.001 267.814 -0.40646 -0.01551 
2.400 422.0 70.705 10.563 256.484 -0.35045 -0.08424 
2.425 422.0 77.026 9.334 244.243 -0.28828 -0.13910 
2.450 407.0 70.842 8.387 231.229 -0.22502 -0.18073 
2.475 407.0 77.058 7.608 217.122 -0.15840 -0.20927 
2.500 407.0 62.835 7.055 201.352 -0.08876 -0.22706 
2.525 407.0 67.961 6.802 185.578 -0.02286 -0.23410 
2.550 407.0 65.387 6.742 169.996 0.04051 -0.22964 
2.575 407.0 73.966 6.372 155.113 0.09283 -0.20011 
2.600 407.0 68.701 7.236 141.808 0.15453 -0.19642 
2.625 397.0 71.093 7.626 129.394 0.20330 -0.16696 
2.650 390.0 69.660 8.081 118.751 0.24404 -0.13389 
2.675 390.0 60.935 8.523 109.151 0.27692 -0.09617 
2.700 401.0 69.003 9.018 99.702 0.30519 -0.05218 
2.725 401.0 65.321 9.501 90.391 0.32561 -0.00222 
2.750 401.0 69.461 9.917 82.003 0.33600 0.04720 
2.775 401.0 61.348 10.224 74.884 0.33728 0.09111 
2.800 409.0 69.827 10.497 67.449 0.33088 0.13740 
2.825 409.0 68.303 10.682 59.893 0.31515 0.18274 
2.850 409.0 65.985 10.796 52.156 0.29059 0.22576 
2.875 409.0 62.011 10.709 45.047 0.25841 0.25800 
2.900 409.0 61.872 10.529 38.184 0.22213 0.28243 
2.925 409.0 60.079 10.262 31.408 0.18270 0.29922 
2.950 409.0 60.461 9.813 24.540 0.13950 0.30555 
2.975 418.0 67.030 9.320 18.021 0.09888 0.30394 
3.000 418.0 66.893 8.671 11.575 0.05981 0.29203 
3.025 418.0 64.008 7.952 6.025 0.02876 0.27253 
3.050 418.0 62.410 7.123 0.977 0.00419 0.24604 
3.075 418.0 61.597 6.312 356.578 -0.01304 0.21816 
3.100 408.0 67.108 5.420 352.554 -0.02437 0.18646 
3.125 408.0 67.096 4.570 350.003 -0.02757 0.15642 
3.150 408.0 64.621 3.733 349.196 -0.02436 0.12764 
3.175 408.0 63.055 2.891 350.418 -0.01677 0.09932 
3.200 408.0 61.712 2.214 356.252 -0.00505 0.07703 
3.225 408.0 60.651 1.699 8.739 0.00901 0.05860 
3.250 417.0 68.630 1.397 33.353 0.02681 0.04073 
3.275 417.0 67.332 1.593 59.190 0.04774 0.02847 
3.300 417.0 64.901 2.059 74.329 0.06913 0.01939 
3.325 417.0 60.159 2.649 80.244 0.09101 0.01565 
3.350 427.0 67.626 3.288 82.174 0.11345 0.01559 
3.375 427.0 69.612 3.857 80.739 0.13249 0.02160 
3.400 427.0 69.085 4.366 79.608 0.14933 0.02738 
3.425 427.0 70.147 4.791 77.213 0.16233 0.03684 
3.450 427.0 68.796 5.164 74.540 0.17278 0.04779 
3.475 427.0 66.644 5.464 71.882 0.18016 0.05895 
3.500 427.0 65.007 5.728 69.508 0.18604 0.06953 
3.525 427.0 62.996 5.952 66.960 0.18982 0.08073 
3.550 427.0 60.324 6.111 64.516 0.19111 0.09109 
3.575 436.0 68.215 6.246 62.531 0.19193 0.09978 
3.600 436.0 66.696 6.313 60.905 0.19101 0.10629 
3.625 436.0 64.666 6.391 58.735 0.18911 0.11482 
3.650 436.0 63.513 6.388 57.211 0.18592 0.11977 
3.675 436.0 61.761 6.390 55.297 0.18185 0.12594 
3.700 436.0 62.386 6.372 53.979 0.17841 0.12972 
3.725 436.0 60.160 6.328 53.066 0.17512 0.13165 
3.750 436.0 58.728 6.254 52.100 0.17089 0.13303 
3.775 446.0 68.691 6.210 51.447 0.16820 0.13405 
3.800 446.0 65.845 6.131 50.817 0.16462 0.13418 
3.825 446.0 62.922 6.057 50.601 0.16216 0.13320 
3.850 446.0 59.023 5.979 50.685 0.16031 0.13128 
3.875 459.0 67.700 5.929 50.860 0.15938 0.12971 
3.900 459.0 61.942 5.842 51.145 0.15772 0.12705 
3.925 471.0 69.075 5.806 51.478 0.15747 0.12536 
3.950 471.0 65.307 5.793 51.933 0.15813 0.12384 
3.975 471.0 60.318 5.742 52.695 0.15835 0.12065 
4.000 482.0 67.648 5.731 53.652 0.16004 0.11777 
4.025 482.0 62.786 5.751 54.384 0.16210 0.11612 
4.050 482.0 59.368 5.729 55.261 0.16323 0.11319 
4.075 496.0 69.218 5.794 55.798 0.16612 0.11290 
4.100 496.0 66.273 5.826 56.528 0.16847 0.11139 
4.125 496.0 60.538 5.872 57.326 0.17132 0.10988 
4.150 507.0 67.140 5.956 58.016 0.17507 0.10933 
4.175 507.0 63.570 6.022 58.105 0.17715 0.11025 
4.200 507.0 60.777 6.068 58.808 0.17983 0.10888 
4.225 519.0 70.346 6.159 59.034 0.18294 0.10978 
4.250 519.0 67.287 6.274 59.178 0.18656 0.11131 
4.275 519.0 63.965 6.303 59.362 0.18779 0.11123 
4.300 519.0 75.247 6.366 59.117 0.18916 0.11313 
4.325 519.0 79.787 6.423 59.878 0.19230 0.11157 
4.350 507.0 69.000 6.512 59.594 0.19436 0.11406 
4.375 507.0 72.492 6.584 59.806 0.19691 0.11458 
4.400 507.0 74.110 6.651 59.506 0.19826 0.11676 
4.425 507.0 76.148 6.726 58.804 0.19900 0.12050 
4.450 507.0 76.868 6.733 59.142 0.19992 0.11945 
4.475 507.0 78.258 6.812 58.773 0.20141 0.12211 
4.500 507.0 77.859 6.836 58.353 0.20123 0.12402 
4.525 507.0 78.020 6.834 58.546 0.20156 0.12330 
4.550 507.0 77.318 6.837 59.078 0.20279 0.12147 
4.575 507.0 77.300 6.946 58.695 0.20513 0.12474 
4.600 507.0 76.786 7.017 57.641 0.20485 0.12980 
4.625 507.0 74.627 7.016 57.698 0.20493 0.12957 
4.650 507.0 72.985 7.038 57.799 0.20579 0.12960 
4.675 507.0 71.788 6.983 58.243 0.20522 0.12703 
4.700 507.0 69.106 7.052 58.142 0.20697 0.12862 
4.725 507.0 68.021 6.991 58.653 0.20635 0.12570 
4.750 507.0 65.045 7.102 57.030 0.20587 0.13354 
4.775 507.0 64.068 7.140 57.806 0.20875 0.13143 
4.800 507.0 61.807 7.106 58.211 0.20867 0.12933 
4.825 520.0 73.116 7.066 58.498 0.20817 0.12757 
4.850 520.0 68.300 7.188 57.771 0.21003 0.13241 
4.875 520.0 65.689 7.144 59.021 0.21158 0.12703 
4.900 520.0 64.822 7.121 58.712 0.21024 0.12777 
4.925 520.0 62.382 7.196 59.008 0.21308 0.12799 
4.950 520.0 60.667 7.280 58.651 0.21470 0.13079 
4.975 532.0 70.401 7.221 58.857 0.21344 0.12898 
5.000 532.0 67.098 7.308 58.836 0.21593 0.13059 
5.025 532.0 66.279 7.313 58.815 0.21603 0.13075 
5.050 532.0 64.018 7.351 58.778 0.21704 0.13156 
5.075 532.0 61.293 7.429 58.652 0.21901 0.13341 
5.100 544.0 69.478 7.414 59.650 0.22083 0.12930 
5.125 544.0 67.895 7.424 59.348 0.22045 0.13064 
5.150 544.0 65.248 7.431 59.803 0.22168 0.12901 
5.175 544.0 62.008 7.513 59.638 0.22369 0.13104 
5.200 555.0 69.811 7.469 60.386 0.22409 0.12738 
5.225 555.0 66.337 7.504 59.962 0.22418 0.12963 
5.250 555.0 62.612 7.620 60.034 0.22773 0.13130 
5.275 555.0 60.654 7.588 60.449 0.22772 0.12910 
5.300 567.0 69.105 7.700 60.176 0.23039 0.13207 
5.325 567.0 66.418 7.539 60.476 0.22635 0.12819 
5.350 567.0 63.815 7.682 60.326 0.23021 0.13117 
5.375 567.0 61.956 7.754 60.070 0.23173 0.13341 
5.400 578.0 68.729 7.789 59.787 0.23208 0.13514 
5.425 578.0 66.513 7.811 60.398 0.23415 0.13303 
5.450 578.0 63.818 7.797 60.540 0.23407 0.13222 
5.475 590.0 72.079 7.767 61.027 0.23428 0.12972 
5.500 590.0 69.919 7.847 60.139 0.23458 0.13468 
5.525 590.0 66.028 7.946 60.279 0.23781 0.13576 
5.550 590.0 63.697 7.831 61.467 0.23718 0.12896 
5.575 590.0 61.353 7.934 60.317 0.23755 0.13540 
5.600 603.0 69.039 7.973 60.496 0.23910 0.13530 
5.625 603.0 65.462 7.969 60.658 0.23938 0.13456 
5.650 603.0 61.709 8.032 61.138 0.24234 0.13357 
5.675 617.0 70.197 8.126 60.706 0.24407 0.13693 
5.700 617.0 65.307 8.107 60.836 0.24383 0.13607 
5.725 617.0 61.844 8.132 61.788 0.24680 0.13240 
5.750 630.0 68.287 8.221 61.106 0.24781 0.13677 
5.775 630.0 64.466 8.129 61.233 0.24542 0.13474 
5.800 630.0 59.882 8.191 61.651 0.24821 0.13392 
5.825 643.0 65.244 8.287 60.919 0.24931 0.13865 
5.850 643.0 61.034 8.238 61.505 0.24926 0.13531 
5.875 658.0 67.535 8.274 61.834 0.25110 0.13444 
5.900 671.0 72.707 8.335 61.497 0.25208 0.13688 
5.925 671.0 66.877 8.381 61.849 0.25429 0.13607 
5.950 684.0 70.393 8.385 62.763 0.25653 0.13205 
5.975 684.0 64.423 8.380 61.676 0.25384 0.13682 
6.000 684.0 59.886 8.502 61.920 0.25802 0.13765 
6.025 705.0 67.382 8.525 60.960 0.25633 0.14232 
6.050 705.0 63.139 8.438 61.055 0.25405 0.14050 
6.075 705.0 58.014 8.467 61.963 0.25710 0.13692 
6.100 727.0 66.555 8.458 61.740 0.25630 0.13777 
6.125 727.0 61.712 8.700 60.906 0.26130 0.14540 
6.150 743.0 67.380 8.507 62.326 0.25914 0.13590 
6.175 743.0 61.448 8.654 62.421 0.26370 0.13774 
6.200 763.0 69.319 8.607 62.863 0.26336 0.13498 
6.225 763.0 65.048 8.755 60.904 0.26291 0.14631 
6.250 779.0 68.772 8.616 62.143 0.26192 0.13843 
6.275 779.0 64.124 8.777 60.729 0.26310 0.14747 
6.300 780.0 60.133 8.897 60.532 0.26605 0.15033 
6.325 780.0 56.235 8.877 58.940 0.26122 0.15733 
6.350 780.0 50.501 8.717 62.173 0.26497 0.13986 
6.375 780.0 45.776 9.075 61.652 0.27414 0.14791 
6.400 780.0 41.057 9.099 60.669 0.27228 0.15299 
6.425 780.0 36.980 8.940 61.050 0.26867 0.14862 
6.450 780.0 32.180 8.917 62.927 0.27271 0.13939 
6.475 780.0 28.632 8.982 63.430 0.27586 0.13796 
6.500 780.0 24.988 8.810 59.888 0.26185 0.15186 

# MINIMA:
0.600 390.0 24.102 1.397 0.974 -0.78695 -0.54409 

# MAXIMA:
6.500 3918.0 105.547 42.570 356.578 0.77625 0.99497 

# PEAKS:

# END SPECTRUM


# SPECTRUM:
4

# START TIME:
12:58:21

# END TIME:
13:08:53

# THETA ANGLE:
0.00 ø

# INCIDENCE ANGLE:
70.00 ø

# ACCUMULATION NUMBER:
1

# ELLIPSOMETRIC CONFIGURATION:
0.00 ø :Modulator
+45.00 øAnalyser

# INTEGRATION TIME:
500 ms

# FIRST POINT:
0.6000 eV

# LAST POINT:
6.5000 eV

# INCREMENT:
0.0250 eV

# NUMBER OF POINTS:
237

# DATA:
eV Hv S0 Psi Delta Is Ic 
0.600 1898.7 60.789 14.788 295.229 -0.44649 0.21038 
0.625 1701.8 74.222 15.531 289.893 -0.48518 0.17556 
0.650 1701.8 75.969 16.235 285.930 -0.51625 0.14735 
0.675 1701.8 70.461 16.017 282.537 -0.51776 0.11514 
0.700 1600.2 82.768 15.966 276.923 -0.52505 0.06375 
0.725 1498.6 79.529 15.423 270.760 -0.51267 0.00680 
0.750 1498.6 75.747 14.638 265.048 -0.48720 -0.04221 
0.775 1397.0 74.663 13.605 257.396 -0.44622 -0.09978 
0.800 997.0 72.674 12.462 248.926 -0.39324 -0.15154 
0.825 1295.4 63.336 11.292 239.508 -0.33093 -0.19487 
0.850 1397.0 69.188 10.192 226.057 -0.25079 -0.24171 
0.875 997.0 70.548 9.303 211.549 -0.16694 -0.27189 
0.900 1193.8 71.231 8.748 194.550 -0.07553 -0.29099 
0.925 1295.4 68.795 8.503 176.239 0.01919 -0.29186 
0.950 1295.4 63.146 8.897 157.815 0.11539 -0.28296 
0.975 997.0 74.558 9.675 141.406 0.20670 -0.25898 
1.000 1295.4 71.461 10.789 128.040 0.28964 -0.22662 
1.025 1295.4 78.036 11.999 116.506 0.36395 -0.18150 
1.050 793.8 66.851 13.289 106.740 0.42844 -0.12887 
1.075 1193.8 67.421 14.601 98.759 0.48219 -0.07429 
1.100 1193.8 75.629 15.988 90.824 0.52952 -0.00762 
1.125 1193.8 77.148 17.476 83.875 0.56962 0.06113 
1.150 1092.2 77.835 19.347 76.644 0.60827 0.14441 
1.175 1092.2 79.877 21.977 69.297 0.64927 0.24537 
1.200 1193.8 65.482 25.719 61.544 0.68747 0.37258 
1.225 895.4 69.218 29.362 54.972 0.69988 0.49056 
1.250 616.0 61.971 32.409 48.925 0.68221 0.59460 
1.275 1117.6 77.496 35.484 42.561 0.63940 0.69629 
1.300 1117.6 76.422 38.229 34.452 0.54998 0.80168 
1.325 1314.5 68.191 41.405 24.349 0.40905 0.90389 
1.350 914.4 71.750 43.300 10.619 0.18396 0.98114 
1.375 1416.1 71.491 44.034 356.799 -0.05581 0.99787 
1.400 1219.2 82.119 43.129 341.068 -0.32375 0.94389 
1.425 3619.5 62.708 37.534 329.489 -0.49056 0.83244 
1.450 3918.0 31.868 35.484 319.061 -0.61945 0.71411 
1.475 780.0 144.572 30.595 310.937 -0.66193 0.57413 
1.500 522.0 61.452 30.184 304.391 -0.71728 0.49097 
1.525 631.0 76.808 27.257 298.565 -0.71514 0.38934 
1.550 570.0 74.065 24.624 292.183 -0.70146 0.28602 
1.575 614.0 76.190 21.959 285.716 -0.66770 0.18788 
1.600 601.0 69.044 19.558 279.063 -0.62302 0.09937 
1.625 539.0 65.829 17.460 272.018 -0.57207 0.02016 
1.650 566.0 67.737 15.123 263.560 -0.50054 -0.05650 
1.675 552.0 68.753 12.898 253.600 -0.41746 -0.12287 
1.700 540.0 67.201 10.865 240.763 -0.32308 -0.18083 
1.725 540.0 75.323 9.070 224.886 -0.21972 -0.22059 
1.750 524.0 69.971 7.686 203.981 -0.10774 -0.24220 
1.775 524.0 75.961 7.175 178.742 0.00544 -0.24778 
1.800 500.0 70.799 7.588 152.941 0.11908 -0.23312 
1.825 500.0 80.481 8.684 132.137 0.22136 -0.20027 
1.850 484.0 70.593 10.297 115.543 0.31735 -0.15166 
1.875 475.0 68.764 12.110 102.995 0.39973 -0.09225 
1.900 475.0 79.445 14.009 92.637 0.46926 -0.02161 
1.925 458.0 66.938 15.872 84.094 0.52334 0.05414 
1.950 458.0 74.677 17.728 76.286 0.56354 0.13753 
1.975 450.0 70.339 19.508 69.254 0.58873 0.22300 
2.000 450.0 76.066 21.329 62.684 0.60205 0.31095 
2.025 450.0 75.224 23.128 56.151 0.59999 0.40240 
2.050 450.0 72.346 24.821 49.947 0.58328 0.49036 
2.075 440.0 70.745 26.489 43.161 0.54615 0.58238 
2.100 440.0 71.091 28.105 35.891 0.48722 0.67329 
2.125 440.0 67.204 29.621 27.910 0.40224 0.75938 
2.150 440.0 65.487 30.680 18.924 0.28463 0.83022 
2.175 440.0 65.630 31.148 9.150 0.14080 0.87409 
2.200 440.0 66.389 30.779 359.313 -0.01055 0.87924 
2.225 440.0 69.757 29.681 349.464 -0.15733 0.84590 
2.250 440.0 74.311 27.843 340.488 -0.27588 0.77853 
2.275 440.0 78.913 25.778 332.801 -0.35800 0.69661 
2.300 428.0 68.610 23.392 325.862 -0.40898 0.60320 
2.325 428.0 70.298 20.889 319.650 -0.43136 0.50775 
2.350 428.0 79.292 18.451 314.508 -0.42822 0.42092 
2.375 418.0 69.520 16.130 309.950 -0.40918 0.34273 
2.400 418.0 73.985 13.757 305.937 -0.37402 0.27112 
2.425 408.0 67.960 11.427 302.555 -0.32735 0.20899 
2.450 400.0 70.902 9.240 300.035 -0.27442 0.15866 
2.475 400.0 73.291 7.122 299.054 -0.21510 0.11950 
2.500 400.0 75.396 5.015 301.604 -0.14835 0.09128 
2.525 392.0 69.655 3.162 311.084 -0.08302 0.07239 
2.550 392.0 65.891 1.992 344.941 -0.01805 0.06708 
2.575 392.0 74.223 2.375 30.815 0.04243 0.07113 
2.600 392.0 67.506 3.776 50.530 0.10146 0.08355 
2.625 380.0 68.827 5.413 55.793 0.15532 0.10558 
2.650 380.0 74.357 6.922 56.462 0.19943 0.13219 
2.675 380.0 67.696 8.342 55.248 0.23588 0.16365 
2.700 380.0 61.284 9.714 53.098 0.26597 0.19972 
2.725 388.0 67.247 11.141 49.931 0.29016 0.24407 
2.750 388.0 75.497 12.335 46.688 0.30371 0.28633 
2.775 388.0 66.558 13.298 43.577 0.30861 0.32433 
2.800 388.0 65.525 14.181 40.132 0.30620 0.36321 
2.825 388.0 64.569 14.996 36.389 0.29657 0.40241 
2.850 388.0 59.624 15.691 32.383 0.27889 0.43976 
2.875 388.0 61.143 16.181 28.537 0.25570 0.47023 
2.900 388.0 61.055 16.520 24.774 0.22847 0.49504 
2.925 398.0 70.519 16.721 21.164 0.19896 0.51393 
2.950 398.0 71.118 16.759 17.286 0.16408 0.52726 
2.975 398.0 67.842 16.643 13.609 0.12914 0.53342 
3.000 398.0 65.928 16.302 10.067 0.09419 0.53052 
3.025 398.0 63.527 15.880 7.083 0.06490 0.52236 
3.050 398.0 62.315 15.352 4.370 0.03890 0.50911 
3.075 398.0 60.908 14.744 2.112 0.01814 0.49190 
3.100 398.0 76.074 14.026 0.321 0.00264 0.47026 
3.125 398.0 76.819 13.373 359.165 -0.00656 0.44998 
3.150 398.0 73.474 12.610 358.526 -0.01096 0.42596 
3.175 398.0 73.069 11.875 358.562 -0.01011 0.40263 
3.200 398.0 69.907 11.235 359.353 -0.00432 0.38216 
3.225 398.0 66.725 10.619 0.759 0.00480 0.36220 
3.250 398.0 65.364 10.094 2.938 0.01769 0.34464 
3.275 398.0 62.717 9.691 5.742 0.03320 0.33021 
3.300 398.0 60.600 9.403 9.004 0.05045 0.31841 
3.325 408.0 67.765 9.302 12.783 0.07059 0.31111 
3.350 408.0 64.688 9.465 16.394 0.09156 0.31121 
3.375 408.0 66.320 9.558 19.539 0.10953 0.30863 
3.400 408.0 66.995 9.787 22.016 0.12559 0.31061 
3.425 408.0 64.599 10.113 23.698 0.13895 0.31658 
3.450 408.0 63.137 10.492 24.925 0.15092 0.32475 
3.475 408.0 63.985 10.816 25.713 0.15994 0.33213 
3.500 408.0 62.412 11.118 26.125 0.16663 0.33976 
3.525 408.0 59.079 11.451 26.157 0.17155 0.34929 
3.550 417.0 68.863 11.710 26.212 0.17556 0.35659 
3.575 417.0 64.613 11.947 26.013 0.17765 0.36402 
3.600 417.0 65.870 12.123 25.587 0.17736 0.37038 
3.625 417.0 62.028 12.299 25.163 0.17699 0.37676 
3.650 417.0 62.007 12.480 24.634 0.17590 0.38359 
3.675 417.0 60.711 12.600 24.100 0.17386 0.38868 
3.700 428.0 72.216 12.667 23.664 0.17175 0.39193 
3.725 428.0 70.877 12.761 23.091 0.16898 0.39635 
3.750 428.0 70.478 12.834 22.507 0.16581 0.40015 
3.775 428.0 66.678 12.794 22.165 0.16295 0.39999 
3.800 428.0 66.128 12.813 21.767 0.16038 0.40165 
3.825 428.0 60.722 12.762 21.478 0.15776 0.40095 
3.850 438.0 66.673 12.745 21.302 0.15634 0.40095 
3.875 438.0 64.429 12.691 21.112 0.15440 0.39989 
3.900 438.0 58.917 12.639 20.986 0.15293 0.39869 
3.925 453.0 68.931 12.591 21.051 0.15283 0.39708 
3.950 453.0 64.664 12.531 21.089 0.15242 0.39523 
3.975 453.0 62.319 12.487 21.173 0.15249 0.39371 
4.000 465.0 68.222 12.431 21.404 0.15343 0.39143 
4.025 465.0 63.692 12.382 21.594 0.15416 0.38950 
4.050 475.0 69.048 12.412 21.829 0.15611 0.38972 
4.075 475.0 66.980 12.358 22.067 0.15708 0.38750 
4.100 475.0 62.365 12.303 22.446 0.15898 0.38483 
4.125 487.0 67.967 12.341 22.730 0.16135 0.38515 
4.150 487.0 64.494 12.302 23.146 0.16365 0.38284 
4.175 487.0 60.473 12.386 23.467 0.16685 0.38434 
4.200 487.0 58.153 12.416 23.686 0.16870 0.38457 
4.225 501.0 68.528 12.418 24.127 0.17169 0.38333 
4.250 501.0 66.244 12.470 24.378 0.17405 0.38408 
4.275 501.0 62.948 12.503 24.667 0.17642 0.38415 
4.300 491.0 71.823 12.477 24.913 0.17772 0.38263 
4.325 491.0 75.293 12.411 25.217 0.17886 0.37980 
4.350 491.0 77.649 12.470 25.440 0.18113 0.38078 
4.375 482.0 69.221 12.621 25.430 0.18312 0.38514 
4.400 482.0 72.129 12.518 25.667 0.18330 0.38144 
4.425 482.0 73.067 12.626 25.844 0.18596 0.38392 
4.450 482.0 74.744 12.545 26.099 0.18654 0.38079 
4.475 482.0 75.437 12.653 26.066 0.18783 0.38397 
4.500 482.0 74.161 12.809 25.918 0.18899 0.38888 
4.525 482.0 75.222 12.933 25.907 0.19061 0.39242 
4.550 482.0 76.718 12.934 25.839 0.19016 0.39269 
4.575 482.0 76.857 12.956 26.065 0.19201 0.39255 
4.600 482.0 73.657 12.861 26.183 0.19150 0.38947 
4.625 482.0 72.444 12.959 26.140 0.19257 0.39239 
4.650 482.0 68.633 13.110 25.871 0.19278 0.39754 
4.675 482.0 69.913 13.085 25.999 0.19332 0.39639 
4.700 482.0 68.265 12.986 26.378 0.19457 0.39234 
4.725 482.0 63.313 13.093 26.246 0.19515 0.39581 
4.750 482.0 64.788 13.139 26.136 0.19503 0.39747 
4.775 482.0 60.929 12.957 26.525 0.19516 0.39101 
4.800 482.0 59.715 13.132 26.371 0.19655 0.39646 
4.825 495.0 68.254 13.149 26.293 0.19625 0.39721 
4.850 495.0 67.379 13.084 26.584 0.19736 0.39439 
4.875 495.0 64.146 13.078 26.518 0.19682 0.39445 
4.900 495.0 60.946 13.123 26.653 0.19837 0.39522 
4.925 505.0 69.916 13.187 26.927 0.20117 0.39606 
4.950 505.0 69.560 13.145 26.886 0.20029 0.39503 
4.975 505.0 66.876 13.145 26.842 0.19999 0.39519 
5.000 505.0 63.900 13.203 26.947 0.20153 0.39644 
5.025 505.0 63.392 13.217 27.158 0.20320 0.39610 
5.050 516.0 70.897 13.215 27.146 0.20308 0.39607 
5.075 516.0 68.723 13.298 27.269 0.20513 0.39795 
5.100 516.0 67.248 13.312 27.382 0.20611 0.39794 
5.125 516.0 65.187 13.182 27.505 0.20509 0.39388 
5.150 528.0 72.686 13.277 27.695 0.20777 0.39583 
5.175 528.0 67.893 13.227 27.947 0.20877 0.39352 
5.200 528.0 66.354 13.314 27.855 0.20941 0.39626 
5.225 528.0 63.348 13.252 27.989 0.20942 0.39406 
5.250 528.0 60.513 13.354 28.086 0.21159 0.39651 
5.275 541.0 70.572 13.411 28.053 0.21221 0.39822 
5.300 541.0 65.928 13.412 28.377 0.21447 0.39704 
5.325 541.0 64.707 13.417 28.422 0.21485 0.39700 
5.350 541.0 61.904 13.531 28.188 0.21490 0.40101 
5.375 553.0 69.679 13.401 28.494 0.21511 0.39628 
5.400 553.0 66.825 13.364 28.758 0.21638 0.39429 
5.425 553.0 65.310 13.477 28.665 0.21743 0.39772 
5.450 553.0 64.690 13.525 28.745 0.21870 0.39871 
5.475 553.0 60.069 13.571 28.615 0.21848 0.40048 
5.500 553.0 58.894 13.466 29.168 0.22075 0.39551 
5.525 566.0 66.832 13.498 29.184 0.22135 0.39631 
5.550 566.0 63.874 13.641 29.241 0.22392 0.39997 
5.575 578.0 72.097 13.534 29.461 0.22381 0.39621 
5.600 578.0 67.230 13.643 29.238 0.22392 0.40003 
5.625 578.0 64.321 13.525 29.599 0.22462 0.39542 
5.650 578.0 58.356 13.723 29.579 0.22751 0.40083 
5.675 594.0 70.168 13.694 29.664 0.22767 0.39974 
5.700 594.0 65.488 13.762 29.585 0.22815 0.40187 
5.725 594.0 62.021 13.696 30.165 0.23119 0.39778 
5.750 609.0 71.698 13.737 30.032 0.23089 0.39940 
5.775 609.0 66.425 13.817 29.836 0.23077 0.40235 
5.800 609.0 63.603 13.757 30.145 0.23199 0.39948 
5.825 621.0 66.700 13.863 30.113 0.23341 0.40245 
5.850 621.0 61.807 13.873 30.311 0.23495 0.40191 
5.875 621.0 59.153 13.794 30.522 0.23519 0.39893 
5.900 641.0 69.150 13.769 30.605 0.23539 0.39793 
5.925 641.0 63.230 13.919 30.448 0.23664 0.40257 
5.950 658.0 69.475 13.918 30.739 0.23867 0.40135 
5.975 658.0 63.334 13.866 30.909 0.23903 0.39924 
6.000 671.0 68.304 13.966 30.375 0.23687 0.40414 
6.025 671.0 62.051 14.149 30.593 0.24127 0.40808 
6.050 671.0 57.253 13.967 30.947 0.24091 0.40178 
6.075 693.0 67.867 14.110 30.612 0.24079 0.40696 
6.100 693.0 61.355 14.050 30.802 0.24119 0.40456 
6.125 710.0 68.194 14.091 30.916 0.24264 0.40517 
6.150 723.0 72.360 14.059 31.256 0.24453 0.40288 
6.175 723.0 65.873 14.050 31.349 0.24503 0.40224 
6.200 723.0 61.643 14.094 31.068 0.24376 0.40460 
6.225 723.0 57.063 13.976 31.456 0.24460 0.39984 
6.250 745.0 66.259 14.234 30.851 0.24445 0.40923 
6.275 745.0 60.129 14.233 31.029 0.24570 0.40844 
6.300 764.0 67.130 14.013 30.793 0.24054 0.40362 
6.325 764.0 61.564 14.129 31.495 0.24733 0.40369 
6.350 780.0 65.095 14.629 29.764 0.24263 0.42427 
6.375 780.0 58.955 14.439 30.950 0.24838 0.41419 
6.400 780.0 53.659 13.936 31.013 0.24087 0.40066 
6.425 780.0 48.710 14.232 32.360 0.25509 0.40258 
6.450 780.0 41.656 14.205 32.323 0.25440 0.40206 
6.475 780.0 38.000 14.174 30.743 0.24273 0.40810 
6.500 780.0 32.319 14.217 31.819 0.25104 0.40460 

# MINIMA:
0.600 380.0 31.868 1.992 0.321 -0.71728 -0.29186 

# MAXIMA:
6.500 3918.0 144.572 44.034 359.353 0.69988 0.99787 

# PEAKS:

# END SPECTRUM


# SPECTRUM:
5

# START TIME:
13:09:36

# END TIME:
13:20:03

# THETA ANGLE:
0.00 ø

# INCIDENCE ANGLE:
75.00 ø

# ACCUMULATION NUMBER:
1

# ELLIPSOMETRIC CONFIGURATION:
0.00 ø :Modulator
+45.00 øAnalyser

# INTEGRATION TIME:
500 ms

# FIRST POINT:
0.6000 eV

# LAST POINT:
6.5000 eV

# INCREMENT:
0.0250 eV

# NUMBER OF POINTS:
237

# DATA:
eV Hv S0 Psi Delta Is Ic 
0.600 1600.2 67.160 20.044 326.617 -0.35434 0.53773 
0.625 1403.4 70.630 19.999 321.765 -0.39780 0.50487 
0.650 1403.4 75.131 20.105 318.135 -0.43084 0.48078 
0.675 1403.4 71.168 20.185 316.501 -0.44585 0.46985 
0.700 1301.8 75.794 19.055 311.693 -0.46086 0.41051 
0.725 1200.2 68.087 18.599 309.220 -0.46836 0.38226 
0.750 1200.2 66.782 16.936 305.465 -0.45393 0.32337 
0.775 1200.2 75.098 15.441 302.665 -0.43208 0.27702 
0.800 800.1 63.996 13.527 299.858 -0.39447 0.22644 
0.825 1098.6 63.712 11.499 297.866 -0.34541 0.18262 
0.850 1200.2 69.740 8.969 295.486 -0.27801 0.13252 
0.875 901.7 76.859 6.412 296.484 -0.19867 0.09899 
0.900 1003.3 66.572 3.850 304.864 -0.10995 0.07660 
0.925 1104.9 64.241 1.920 345.716 -0.01652 0.06489 
0.950 1206.5 69.985 3.052 49.645 0.08102 0.06884 
0.975 908.1 74.820 5.640 62.794 0.17395 0.08942 
1.000 1104.9 58.249 8.259 65.394 0.25851 0.11838 
1.025 1104.9 64.593 10.783 64.168 0.33085 0.16017 
1.050 711.2 61.315 13.121 61.612 0.38900 0.21022 
1.075 1111.3 68.862 15.410 58.619 0.43739 0.26679 
1.100 1111.3 82.002 17.597 55.788 0.47663 0.32406 
1.125 1009.7 63.551 19.865 52.799 0.50911 0.38645 
1.150 908.1 62.663 22.193 49.899 0.53505 0.45057 
1.175 908.1 65.814 25.286 46.804 0.56311 0.52872 
1.200 1104.9 76.910 28.513 44.018 0.58295 0.60329 
1.225 806.5 75.944 31.576 40.549 0.58002 0.67794 
1.250 552.5 63.478 34.415 36.682 0.55706 0.74784 
1.275 952.5 76.731 36.562 32.674 0.51660 0.80551 
1.300 952.5 78.650 38.675 27.360 0.44842 0.86658 
1.325 1149.4 71.039 40.283 21.010 0.35368 0.92089 
1.350 749.3 69.490 42.042 12.119 0.20882 0.97251 
1.375 1251.0 74.394 41.930 2.629 0.04561 0.99322 
1.400 952.5 69.587 42.387 351.427 -0.14844 0.98472 
1.425 2349.5 61.792 41.029 342.485 -0.29806 0.94450 
1.450 3949.7 45.466 36.516 334.105 -0.41771 0.86044 
1.475 780.0 188.894 32.774 326.922 -0.49683 0.76276 
1.500 509.0 66.014 34.356 322.709 -0.56452 0.74129 
1.525 594.0 61.666 31.508 318.463 -0.59092 0.66704 
1.550 550.0 71.155 29.084 314.610 -0.60484 0.59666 
1.575 585.0 67.149 26.736 311.353 -0.60320 0.53092 
1.600 585.0 70.789 23.954 307.627 -0.58771 0.45305 
1.625 533.0 74.666 21.484 304.492 -0.56177 0.38598 
1.650 548.0 68.066 18.578 301.446 -0.51528 0.31510 
1.675 548.0 76.860 15.574 298.293 -0.45544 0.24516 
1.700 532.0 70.778 12.399 295.903 -0.37728 0.18323 
1.725 532.0 75.992 9.207 295.830 -0.28433 0.13764 
1.750 519.0 70.560 5.868 299.912 -0.17630 0.10143 
1.775 507.0 68.279 3.044 323.564 -0.06299 0.08533 
1.800 492.0 71.751 3.006 30.490 0.05313 0.09024 
1.825 492.0 77.374 5.714 55.173 0.16266 0.11316 
1.850 475.0 67.913 8.900 59.847 0.26434 0.15355 
1.875 475.0 75.971 11.867 59.280 0.34602 0.20562 
1.900 460.0 69.783 14.738 57.379 0.41445 0.26526 
1.925 452.0 69.533 17.415 54.187 0.46316 0.33420 
1.950 452.0 77.110 19.815 51.020 0.49583 0.40122 
1.975 438.0 69.183 22.060 47.595 0.51405 0.46948 
2.000 438.0 75.920 24.141 43.973 0.51826 0.53718 
2.025 438.0 79.577 26.104 40.252 0.51062 0.60312 
2.050 438.0 74.747 27.829 36.499 0.49113 0.66374 
2.075 425.0 71.146 29.513 32.310 0.45829 0.72465 
2.100 425.0 71.437 31.111 27.681 0.41101 0.78350 
2.125 425.0 73.046 32.524 22.741 0.35049 0.83617 
2.150 425.0 71.658 33.744 17.041 0.27072 0.88324 
2.175 425.0 70.122 34.337 10.763 0.17396 0.91513 
2.200 425.0 72.155 34.506 4.235 0.06895 0.93111 
2.225 425.0 73.377 34.078 357.501 -0.04046 0.92732 
2.250 425.0 76.825 33.114 351.199 -0.14002 0.90438 
2.275 425.0 80.222 31.666 345.797 -0.21927 0.86631 
2.300 416.0 69.125 29.837 341.012 -0.28085 0.81621 
2.325 416.0 74.762 27.727 336.996 -0.32188 0.75817 
2.350 416.0 75.773 25.636 334.054 -0.34133 0.70150 
2.375 416.0 80.161 23.486 332.000 -0.34319 0.64545 
2.400 408.0 72.438 21.350 330.710 -0.33177 0.59146 
2.425 408.0 77.280 19.181 330.479 -0.30582 0.54006 
2.450 395.0 69.461 17.240 331.438 -0.27068 0.49723 
2.475 395.0 74.327 15.450 333.743 -0.22719 0.46055 
2.500 382.0 69.690 13.828 337.958 -0.17419 0.43022 
2.525 382.0 72.094 12.624 343.837 -0.11873 0.40967 
2.550 382.0 69.185 11.868 351.424 -0.06003 0.39803 
2.575 382.0 78.607 11.577 359.426 -0.00394 0.39318 
2.600 382.0 73.235 11.892 7.369 0.05173 0.39997 
2.625 369.0 69.930 12.527 13.998 0.10243 0.41089 
2.650 369.0 76.443 13.443 18.910 0.14655 0.42781 
2.675 369.0 68.562 14.477 22.032 0.18160 0.44875 
2.700 369.0 63.644 15.621 23.983 0.21082 0.47389 
2.725 377.0 69.298 16.993 24.964 0.23592 0.50677 
2.750 377.0 75.146 18.149 25.020 0.25038 0.53643 
2.775 377.0 67.247 19.228 24.340 0.25632 0.56663 
2.800 377.0 68.570 20.157 23.383 0.25677 0.59384 
2.825 377.0 66.724 21.046 21.993 0.25103 0.62154 
2.850 377.0 66.311 21.830 20.243 0.23888 0.64773 
2.875 377.0 62.179 22.533 18.370 0.22310 0.67185 
2.900 377.0 64.148 22.960 16.435 0.20324 0.68901 
2.925 377.0 60.634 23.239 14.424 0.18062 0.70226 
2.950 377.0 63.072 23.541 12.229 0.15513 0.71571 
2.975 385.0 69.743 23.651 10.125 0.12921 0.72349 
3.000 385.0 68.413 23.556 7.984 0.10176 0.72559 
3.025 385.0 66.687 23.365 6.098 0.07735 0.72402 
3.050 385.0 64.765 23.106 4.444 0.05593 0.71975 
3.075 385.0 61.923 22.672 2.992 0.03713 0.71038 
3.100 385.0 78.629 22.206 1.780 0.02174 0.69947 
3.125 377.0 68.144 21.752 0.848 0.01019 0.68833 
3.150 377.0 64.497 21.140 0.246 0.00289 0.67276 
3.175 377.0 62.684 20.556 359.978 -0.00025 0.65754 
3.200 377.0 60.781 19.955 0.011 0.00012 0.64159 
3.225 386.0 68.621 19.501 0.500 0.00549 0.62931 
3.250 386.0 66.472 19.045 1.180 0.01271 0.61678 
3.275 386.0 63.938 18.607 2.204 0.02326 0.60436 
3.300 386.0 60.568 18.250 3.443 0.03572 0.59374 
3.325 398.0 69.870 18.079 4.993 0.05136 0.58778 
3.350 398.0 66.420 17.974 6.650 0.06798 0.58310 
3.375 398.0 68.123 18.014 8.160 0.08348 0.58221 
3.400 398.0 68.708 18.110 9.499 0.09751 0.58278 
3.425 398.0 67.765 18.234 10.659 0.10994 0.58412 
3.450 398.0 66.079 18.457 11.578 0.12055 0.58839 
3.475 398.0 66.113 18.667 12.220 0.12837 0.59271 
3.500 398.0 64.160 18.877 12.813 0.13578 0.59703 
3.525 398.0 61.242 19.140 13.158 0.14102 0.60324 
3.550 398.0 59.413 19.343 13.392 0.14477 0.60805 
3.575 406.0 67.491 19.550 13.470 0.14691 0.61332 
3.600 406.0 65.131 19.671 13.520 0.14821 0.61638 
3.625 406.0 62.930 19.882 13.482 0.14912 0.62200 
3.650 406.0 61.794 20.018 13.362 0.14866 0.62585 
3.675 406.0 60.708 20.177 13.177 0.14760 0.63046 
3.700 406.0 60.184 20.288 13.002 0.14634 0.63377 
3.725 416.0 72.178 20.328 12.895 0.14540 0.63509 
3.750 416.0 68.351 20.430 12.628 0.14302 0.63839 
3.775 416.0 67.125 20.440 12.427 0.14084 0.63914 
3.800 416.0 66.250 20.457 12.245 0.13890 0.64002 
3.825 416.0 61.494 20.471 12.080 0.13714 0.64079 
3.850 416.0 56.871 20.494 11.910 0.13537 0.64179 
3.875 432.0 69.377 20.438 11.804 0.13387 0.64059 
3.900 432.0 64.568 20.410 11.736 0.13296 0.64002 
3.925 432.0 57.266 20.386 11.685 0.13226 0.63952 
3.950 448.0 72.600 20.305 11.690 0.13188 0.63740 
3.975 448.0 66.089 20.290 11.669 0.13157 0.63706 
4.000 448.0 63.467 20.257 11.723 0.13200 0.63608 
4.025 460.0 71.474 20.201 11.728 0.13175 0.63462 
4.050 460.0 66.776 20.234 11.823 0.13298 0.63526 
4.075 460.0 62.641 20.131 11.964 0.13398 0.63223 
4.100 469.0 65.792 20.124 12.068 0.13509 0.63183 
4.125 469.0 61.079 20.145 12.238 0.13708 0.63196 
4.150 469.0 58.168 20.160 12.348 0.13837 0.63208 
4.175 483.0 66.309 20.124 12.605 0.14099 0.63053 
4.200 483.0 64.320 20.157 12.682 0.14204 0.63120 
4.225 483.0 62.547 20.179 12.888 0.14444 0.63124 
4.250 493.0 70.464 20.170 13.029 0.14594 0.63066 
4.275 493.0 63.702 20.175 13.266 0.14857 0.63017 
4.300 475.0 70.678 20.124 13.359 0.14928 0.62862 
4.325 475.0 75.744 20.229 13.548 0.15201 0.63084 
4.350 475.0 78.217 20.071 13.766 0.15341 0.62617 
4.375 465.0 70.386 19.913 13.858 0.15341 0.62182 
4.400 465.0 72.886 20.083 13.913 0.15509 0.62607 
4.425 465.0 72.015 20.122 14.058 0.15693 0.62670 
4.450 465.0 74.267 20.116 14.239 0.15887 0.62605 
4.475 465.0 74.738 20.190 14.240 0.15936 0.62796 
4.500 465.0 76.958 20.260 14.238 0.15979 0.62976 
4.525 465.0 76.235 20.048 14.302 0.15910 0.62410 
4.550 465.0 74.283 20.220 14.335 0.16060 0.62844 
4.575 465.0 74.511 20.340 14.347 0.16153 0.63151 
4.600 465.0 72.498 20.394 14.359 0.16201 0.63287 
4.625 465.0 72.444 20.401 14.357 0.16204 0.63304 
4.650 465.0 71.568 20.401 14.392 0.16242 0.63294 
4.675 465.0 69.266 20.394 14.578 0.16442 0.63224 
4.700 465.0 66.341 20.548 14.547 0.16510 0.63626 
4.725 465.0 64.405 20.498 14.450 0.16370 0.63525 
4.750 465.0 62.778 20.317 14.610 0.16426 0.63017 
4.775 475.0 72.443 20.518 14.580 0.16528 0.63539 
4.800 475.0 66.435 20.610 14.595 0.16605 0.63770 
4.825 475.0 65.811 20.478 14.793 0.16736 0.63376 
4.850 475.0 62.747 20.591 14.713 0.16723 0.63685 
4.875 486.0 74.014 20.494 14.747 0.16696 0.63430 
4.900 486.0 71.085 20.456 14.796 0.16725 0.63317 
4.925 486.0 67.316 20.597 14.821 0.16847 0.63671 
4.950 486.0 66.190 20.650 14.873 0.16941 0.63788 
4.975 486.0 64.060 20.659 14.888 0.16963 0.63806 
5.000 486.0 60.327 20.536 14.987 0.16990 0.63467 
5.025 496.0 71.817 20.521 15.058 0.17058 0.63406 
5.050 496.0 67.995 20.595 15.126 0.17185 0.63575 
5.075 496.0 65.154 20.683 15.210 0.17338 0.63771 
5.100 496.0 62.592 20.534 15.190 0.17213 0.63401 
5.125 496.0 59.211 20.532 15.291 0.17324 0.63365 
5.150 508.0 66.387 20.544 15.467 0.17527 0.63341 
5.175 508.0 65.886 20.739 15.380 0.17566 0.63862 
5.200 508.0 64.004 20.658 15.521 0.17666 0.63613 
5.225 519.0 70.517 20.723 15.497 0.17686 0.63784 
5.250 519.0 69.357 20.644 15.650 0.17801 0.63539 
5.275 519.0 65.503 20.623 15.826 0.17980 0.63431 
5.300 519.0 62.016 20.747 15.815 0.18056 0.63746 
5.325 530.0 69.198 20.660 15.916 0.18106 0.63496 
5.350 530.0 66.994 20.758 15.839 0.18091 0.63766 
5.375 530.0 66.180 20.770 15.920 0.18190 0.63771 
5.400 530.0 62.096 20.745 16.031 0.18296 0.63673 
5.425 530.0 61.087 20.824 15.990 0.18307 0.63884 
5.450 543.0 67.630 20.895 16.040 0.18413 0.64047 
5.475 543.0 65.480 20.716 16.285 0.18555 0.63517 
5.500 543.0 64.133 20.895 16.295 0.18698 0.63964 
5.525 543.0 60.730 20.803 16.443 0.18795 0.63684 
5.550 556.0 70.031 20.862 16.453 0.18849 0.63828 
5.575 556.0 68.081 20.875 16.429 0.18833 0.63868 
5.600 556.0 63.552 20.715 16.349 0.18626 0.63495 
5.625 556.0 60.635 20.759 16.504 0.18830 0.63554 
5.650 572.0 71.060 20.867 16.576 0.18991 0.63801 
5.675 572.0 64.778 20.820 16.741 0.19139 0.63630 
5.700 572.0 61.917 20.745 16.866 0.19221 0.63400 
5.725 585.0 69.578 20.853 16.908 0.19349 0.63655 
5.750 585.0 65.980 20.912 16.884 0.19368 0.63811 
5.775 585.0 62.073 20.989 17.065 0.19628 0.63941 
5.800 603.0 73.205 20.930 16.985 0.19494 0.63822 
5.825 603.0 66.684 21.003 17.074 0.19649 0.63972 
5.850 603.0 63.500 20.978 17.137 0.19699 0.63887 
5.875 616.0 65.945 20.929 17.204 0.19736 0.63744 
5.900 616.0 63.145 21.002 17.192 0.19780 0.63929 
5.925 630.0 66.999 21.126 16.971 0.19626 0.64311 
5.950 630.0 62.322 21.068 17.366 0.20025 0.64030 
5.975 647.0 69.705 20.956 17.369 0.19941 0.63752 
6.000 647.0 64.000 21.229 17.250 0.20019 0.64469 
6.025 662.0 68.167 21.196 17.596 0.20382 0.64267 
6.050 662.0 61.628 21.078 17.526 0.20210 0.63999 
6.075 682.0 74.207 21.069 17.678 0.20373 0.63923 
6.100 682.0 67.110 20.899 17.660 0.20219 0.63511 
6.125 682.0 61.208 21.075 17.675 0.20375 0.63938 
6.150 701.0 69.679 21.152 17.413 0.20142 0.64223 
6.175 701.0 63.779 21.139 18.080 0.20877 0.63951 
6.200 717.0 69.009 21.071 17.736 0.20440 0.63907 
6.225 717.0 63.720 21.091 18.024 0.20777 0.63855 
6.250 732.0 68.598 21.140 17.682 0.20433 0.64096 
6.275 732.0 63.396 21.095 18.234 0.21014 0.63786 
6.300 732.0 58.614 21.221 18.158 0.21031 0.64125 
6.325 754.0 66.974 21.149 17.930 0.20718 0.64029 
6.350 754.0 60.051 21.025 17.972 0.20667 0.63710 
6.375 778.0 70.267 21.336 18.308 0.21291 0.64348 
6.400 778.0 61.550 21.320 18.116 0.21062 0.64380 
6.425 780.0 55.767 20.873 18.265 0.20867 0.63227 
6.450 780.0 49.805 21.135 18.150 0.20953 0.63914 
6.475 780.0 43.802 21.022 17.879 0.20561 0.63737 
6.500 780.0 37.156 20.653 18.087 0.20492 0.62745 

# MINIMA:
0.600 369.0 37.156 1.920 0.011 -0.60484 0.06489 

# MAXIMA:
6.500 3949.7 188.894 42.387 359.978 0.58295 0.99322 

# PEAKS:

# END SPECTRUM

