## SPECTRUM TYPE:
Spectroscopic

## DATE:
11/9/2011

## COMMENTS:

## NUMBER OF SPECTRUM:
5

## ELLIPSOMETRIC CONFIGURATION:
+45.00 øModulator
+45.00 øAnalyser

## UNIT:
eV


# SPECTRUM:
1

# START TIME:
18:08:03

# END TIME:
18:19:43

# THETA ANGLE:
0.00 ø

# INCIDENCE ANGLE:
55.00 ø

# ACCUMULATION NUMBER:
1

# ELLIPSOMETRIC CONFIGURATION:
+45.00 øModulator
+45.00 øAnalyser

# INTEGRATION TIME:
500 ms

# FIRST POINT:
0.6000 eV

# LAST POINT:
6.5000 eV

# INCREMENT:
0.0250 eV

# NUMBER OF POINTS:
237

# DATA:
eV Hv S0 Psi Delta Is Ic 
0.600 1797.1 61.854 27.937 331.187 -0.39896 0.56100 
0.625 1600.2 73.336 28.836 331.949 -0.39737 0.53477 
0.650 1498.6 70.189 28.193 331.521 -0.39709 0.55361 
0.675 1498.6 67.138 29.185 333.003 -0.38652 0.52443 
0.700 1397.0 77.653 29.016 335.305 -0.35443 0.52944 
0.725 1295.4 75.515 28.969 337.654 -0.32221 0.53083 
0.750 1295.4 79.535 29.419 340.901 -0.28000 0.51745 
0.775 1193.8 77.992 29.356 344.139 -0.23355 0.51935 
0.800 793.8 71.047 29.333 347.565 -0.18393 0.52003 
0.825 1092.2 77.016 29.210 351.178 -0.13066 0.52368 
0.850 1092.2 74.262 29.441 355.011 -0.07445 0.51681 
0.875 793.8 76.990 29.669 358.947 -0.01582 0.50996 
0.900 895.4 71.707 29.581 2.864 0.04290 0.51261 
0.925 997.0 71.657 29.512 6.808 0.10163 0.51469 
0.950 997.0 63.193 29.621 10.643 0.15870 0.51140 
0.975 800.1 74.096 29.584 14.481 0.21472 0.51252 
1.000 997.0 61.777 29.306 18.191 0.26649 0.52085 
1.025 997.0 64.378 29.271 21.833 0.31725 0.52188 
1.050 698.5 66.068 29.105 25.207 0.36200 0.52681 
1.075 1098.6 75.715 28.968 28.344 0.40234 0.53086 
1.100 1098.6 78.281 28.915 31.551 0.44293 0.53242 
1.125 1098.6 72.140 28.446 35.049 0.48104 0.54622 
1.150 1098.6 77.907 28.585 38.479 0.52285 0.54215 
1.175 1098.6 63.766 28.273 45.091 0.59089 0.55127 
1.200 1498.6 73.439 28.435 57.922 0.70958 0.54653 
1.225 1301.8 74.497 30.081 72.183 0.82584 0.49754 
1.250 1003.3 78.717 33.193 73.957 0.88058 0.40058 
1.275 2000.3 63.866 37.449 57.713 0.81619 0.26054 
1.300 2902.0 60.824 42.864 29.193 0.48640 0.07448 
1.325 3898.9 56.926 45.275 357.570 -0.04239 -0.00961 
1.350 2298.7 78.784 42.661 318.527 -0.66006 0.08155 
1.375 2298.7 64.361 38.069 294.864 -0.88088 0.23957 
1.400 1797.1 80.096 33.072 274.595 -0.91162 0.40445 
1.425 3994.2 42.399 30.690 284.985 -0.84796 0.47900 
1.450 3994.2 23.636 28.661 294.708 -0.76467 0.53990 
1.475 749.0 79.872 27.254 305.815 -0.66023 0.58060 
1.500 544.0 67.531 26.457 309.789 -0.61299 0.60300 
1.525 636.0 72.775 26.154 317.527 -0.53432 0.61143 
1.550 563.0 65.170 25.970 323.393 -0.46952 0.61650 
1.575 597.0 65.065 26.020 329.929 -0.39506 0.61511 
1.600 597.0 73.974 25.762 335.408 -0.32579 0.62218 
1.625 534.0 72.702 25.918 340.851 -0.25791 0.61791 
1.650 534.0 58.891 26.177 346.523 -0.18454 0.61078 
1.675 534.0 72.316 26.204 351.789 -0.11316 0.61003 
1.700 519.0 69.022 26.028 357.114 -0.03970 0.61490 
1.725 510.0 68.417 26.065 2.229 0.03070 0.61386 
1.750 500.0 68.025 25.960 7.397 0.10134 0.61677 
1.775 500.0 76.495 25.846 12.636 0.17166 0.61989 
1.800 481.0 72.252 25.452 18.128 0.24148 0.63062 
1.825 481.0 75.145 25.250 23.382 0.30623 0.63606 
1.850 481.0 78.348 24.966 28.954 0.37048 0.64370 
1.875 473.0 71.122 24.478 34.633 0.42864 0.65663 
1.900 473.0 73.735 24.137 40.677 0.48646 0.66557 
1.925 473.0 73.299 23.638 47.229 0.53928 0.67846 
1.950 473.0 71.020 23.151 54.365 0.58760 0.69087 
1.975 473.0 66.834 22.824 62.225 0.63268 0.69906 
2.000 473.0 60.726 22.181 72.997 0.66862 0.71494 
2.025 491.0 66.933 21.819 84.728 0.68719 0.72371 
2.050 507.0 67.457 21.522 78.586 0.66907 0.73082 
2.075 507.0 62.704 21.038 58.341 0.57040 0.74225 
2.100 521.0 67.123 20.260 33.037 0.35421 0.76018 
2.125 521.0 63.893 19.361 3.321 0.03624 0.78019 
2.150 521.0 69.152 18.430 331.367 -0.28745 0.80011 
2.175 509.0 68.631 17.929 302.215 -0.49561 0.81047 
2.200 493.0 68.442 17.900 280.305 -0.57554 0.81105 
2.225 478.0 68.752 18.120 282.372 -0.57745 0.80654 
2.250 465.0 69.274 18.536 296.414 -0.53989 0.79788 
2.275 454.0 70.130 18.937 307.317 -0.48826 0.78935 
2.300 445.0 70.446 19.385 316.906 -0.42781 0.77968 
2.325 436.0 69.608 19.700 325.186 -0.36237 0.77274 
2.350 436.0 78.815 20.021 332.050 -0.30154 0.76557 
2.375 424.0 69.872 20.311 338.226 -0.24151 0.75902 
2.400 424.0 75.286 20.520 344.002 -0.18095 0.75426 
2.425 414.0 69.989 20.631 349.528 -0.11987 0.75171 
2.450 404.0 67.716 20.719 354.478 -0.06368 0.74968 
2.475 404.0 72.555 20.729 359.123 -0.01013 0.74944 
2.500 386.0 71.853 20.470 3.798 0.04341 0.75540 
2.525 386.0 75.655 20.294 8.199 0.09279 0.75942 
2.550 386.0 71.269 20.092 12.515 0.13982 0.76397 
2.575 386.0 77.741 19.980 16.356 0.18086 0.76649 
2.600 386.0 68.818 19.269 20.691 0.22013 0.78220 
2.625 379.0 70.303 18.834 24.584 0.25423 0.79157 
2.650 379.0 73.958 18.238 28.412 0.28286 0.80411 
2.675 379.0 61.214 17.611 31.917 0.30492 0.81693 
2.700 393.0 69.886 16.696 35.741 0.32148 0.83493 
2.725 393.0 60.867 15.476 39.921 0.33006 0.85759 
2.750 393.0 60.453 14.326 43.244 0.32851 0.87754 
2.775 410.0 68.451 13.104 45.863 0.31694 0.89720 
2.800 410.0 63.700 11.964 46.366 0.29354 0.91406 
2.825 410.0 60.012 10.143 48.552 0.25987 0.93798 
2.850 422.0 67.775 8.617 46.449 0.21472 0.95511 
2.875 422.0 64.707 7.213 40.903 0.16313 0.96847 
2.900 422.0 62.771 6.359 30.075 0.11032 0.97547 
2.925 422.0 63.437 5.798 17.786 0.06141 0.97959 
2.950 422.0 63.401 6.308 4.178 0.01591 0.97586 
2.975 422.0 63.329 7.123 355.538 -0.01914 0.96925 
3.000 422.0 64.068 7.994 350.940 -0.04337 0.96132 
3.025 422.0 65.255 9.193 349.449 -0.05776 0.94895 
3.050 422.0 65.573 10.113 349.679 -0.06194 0.93833 
3.075 422.0 65.936 11.170 350.998 -0.05948 0.92494 
3.100 409.0 70.479 11.888 352.747 -0.05090 0.91513 
3.125 409.0 72.966 12.556 354.983 -0.03711 0.90548 
3.150 409.0 72.153 13.173 357.358 -0.02045 0.89613 
3.175 409.0 70.708 13.650 359.854 -0.00116 0.88862 
3.200 409.0 69.139 14.228 2.248 0.01869 0.87919 
3.225 409.0 68.234 14.490 4.580 0.03869 0.87480 
3.250 409.0 67.153 14.632 7.004 0.05961 0.87238 
3.275 409.0 64.161 14.683 9.715 0.08275 0.87150 
3.300 409.0 61.450 14.953 11.913 0.10292 0.86685 
3.325 420.0 69.157 14.828 14.320 0.12238 0.86901 
3.350 420.0 64.742 14.762 16.669 0.14135 0.87015 
3.375 420.0 63.317 14.560 18.693 0.15597 0.87359 
3.400 420.0 63.317 14.305 20.310 0.16621 0.87789 
3.425 420.0 62.248 14.025 21.780 0.17448 0.88254 
3.450 420.0 59.976 13.566 23.098 0.17890 0.88996 
3.475 429.0 66.670 13.466 23.523 0.18077 0.89154 
3.500 429.0 62.956 13.209 23.954 0.18064 0.89557 
3.525 429.0 60.356 12.854 24.391 0.17914 0.90101 
3.550 440.0 69.272 12.591 24.436 0.17602 0.90495 
3.575 440.0 65.760 12.324 24.369 0.17208 0.90888 
3.600 440.0 63.579 12.239 23.809 0.16727 0.91011 
3.625 440.0 61.464 12.038 23.281 0.16123 0.91301 
3.650 440.0 59.582 11.763 22.930 0.15551 0.91688 
3.675 451.0 70.178 11.831 21.946 0.14999 0.91593 
3.700 451.0 68.440 11.579 21.533 0.14434 0.91942 
3.725 451.0 67.799 11.738 20.649 0.14048 0.91722 
3.750 451.0 66.422 11.779 19.999 0.13669 0.91666 
3.775 451.0 64.537 11.910 19.235 0.13305 0.91482 
3.800 451.0 61.450 11.827 19.115 0.13138 0.91598 
3.825 461.0 68.975 12.060 18.469 0.12945 0.91270 
3.850 461.0 64.868 12.191 18.245 0.12925 0.91081 
3.875 461.0 59.880 12.195 18.182 0.12886 0.91076 
3.900 476.0 69.051 12.351 18.187 0.13044 0.90850 
3.925 476.0 63.653 12.465 18.246 0.13198 0.90682 
3.950 476.0 58.828 12.599 18.350 0.13404 0.90484 
3.975 491.0 69.346 12.658 18.694 0.13705 0.90397 
4.000 491.0 64.888 12.742 18.919 0.13950 0.90271 
4.025 491.0 60.638 12.838 19.163 0.14223 0.90125 
4.050 502.0 67.260 13.035 19.217 0.14465 0.89826 
4.075 502.0 63.082 13.073 19.711 0.14862 0.89768 
4.100 513.0 68.517 13.051 20.097 0.15118 0.89801 
4.125 513.0 62.964 13.182 20.424 0.15496 0.89599 
4.150 523.0 67.593 12.995 21.106 0.15780 0.89886 
4.175 523.0 63.764 13.038 21.522 0.16125 0.89822 
4.200 523.0 60.513 12.939 22.086 0.16411 0.89972 
4.225 534.0 67.749 13.080 22.231 0.16680 0.89757 
4.250 534.0 64.148 13.029 22.622 0.16897 0.89835 
4.275 534.0 60.759 12.938 23.145 0.17154 0.89973 
4.300 510.0 71.112 13.220 22.786 0.17244 0.89540 
4.325 510.0 74.711 13.279 22.994 0.17465 0.89449 
4.350 510.0 76.803 13.398 22.759 0.17440 0.89262 
4.375 510.0 79.560 13.403 23.004 0.17624 0.89253 
4.400 501.0 71.363 13.564 22.839 0.17699 0.88998 
4.425 501.0 72.557 14.012 22.007 0.17607 0.88274 
4.450 501.0 73.357 13.540 23.068 0.17837 0.89037 
4.475 501.0 73.706 13.361 23.281 0.17772 0.89320 
4.500 501.0 73.094 13.620 23.000 0.17885 0.88910 
4.525 501.0 72.287 13.485 23.002 0.17722 0.89125 
4.550 501.0 72.747 13.097 23.931 0.17906 0.89730 
4.575 501.0 71.422 13.530 23.189 0.17913 0.89053 
4.600 501.0 70.333 13.259 23.724 0.17963 0.89479 
4.625 501.0 68.224 13.019 24.167 0.17971 0.89850 
4.650 501.0 67.233 13.248 23.847 0.18037 0.89497 
4.675 501.0 64.258 13.444 23.397 0.17959 0.89189 
4.700 501.0 63.095 13.404 23.731 0.18150 0.89253 
4.725 501.0 61.443 13.207 23.926 0.18041 0.89561 
4.750 511.0 69.332 13.344 24.058 0.18309 0.89347 
4.775 511.0 66.569 13.423 23.685 0.18142 0.89222 
4.800 511.0 63.369 13.524 23.748 0.18313 0.89062 
4.825 521.0 71.008 13.586 23.616 0.18294 0.88964 
4.850 521.0 68.401 13.315 24.443 0.18547 0.89392 
4.875 521.0 65.387 13.962 23.167 0.18423 0.88357 
4.900 521.0 63.093 13.622 23.957 0.18588 0.88906 
4.925 521.0 60.387 13.501 24.243 0.18643 0.89099 
4.950 532.0 69.207 13.313 24.758 0.18769 0.89395 
4.975 532.0 66.998 13.539 24.666 0.18996 0.89039 
5.000 532.0 65.196 13.749 24.082 0.18840 0.88703 
5.025 532.0 63.636 13.733 24.508 0.19132 0.88729 
5.050 532.0 60.004 13.674 24.755 0.19236 0.88824 
5.075 532.0 58.740 13.100 25.915 0.19296 0.89725 
5.100 545.0 67.473 14.045 24.390 0.19444 0.88221 
5.125 545.0 64.598 13.713 24.886 0.19382 0.88761 
5.150 545.0 61.207 13.435 25.737 0.19627 0.89203 
5.175 545.0 58.519 13.433 25.963 0.19784 0.89207 
5.200 560.0 68.857 13.948 24.867 0.19674 0.88380 
5.225 560.0 64.498 13.916 25.267 0.19927 0.88433 
5.250 560.0 62.003 13.354 26.460 0.20026 0.89331 
5.275 560.0 59.688 13.749 26.001 0.20241 0.88703 
5.300 574.0 67.846 13.564 26.234 0.20156 0.88999 
5.325 574.0 65.769 13.849 26.051 0.20414 0.88540 
5.350 574.0 63.328 13.230 27.096 0.20294 0.89525 
5.375 574.0 60.622 13.741 26.378 0.20503 0.88716 
5.400 588.0 70.636 13.573 26.572 0.20409 0.88984 
5.425 588.0 66.877 13.739 26.786 0.20794 0.88718 
5.450 588.0 65.207 13.598 26.852 0.20644 0.88944 
5.475 588.0 62.531 13.658 26.910 0.20770 0.88849 
5.500 588.0 59.439 14.031 26.371 0.20895 0.88244 
5.525 603.0 68.750 13.442 27.552 0.20916 0.89193 
5.550 603.0 65.680 13.576 27.344 0.20962 0.88980 
5.575 603.0 62.371 13.737 27.217 0.21100 0.88722 
5.600 603.0 59.045 13.895 26.941 0.21123 0.88467 
5.625 620.0 69.760 13.467 27.873 0.21177 0.89153 
5.650 620.0 65.552 14.020 27.216 0.21500 0.88262 
5.675 620.0 62.410 13.946 27.222 0.21400 0.88382 
5.700 634.0 68.457 13.997 27.542 0.21704 0.88300 
5.725 634.0 64.843 13.697 28.281 0.21799 0.88787 
5.750 634.0 60.751 13.774 27.778 0.21553 0.88663 
5.775 652.0 69.606 13.890 28.235 0.22050 0.88475 
5.800 652.0 65.053 13.929 27.836 0.21820 0.88410 
5.825 652.0 60.276 13.883 28.190 0.22007 0.88486 
5.850 669.0 66.973 13.775 28.466 0.22045 0.88661 
5.875 669.0 62.437 14.270 27.427 0.22008 0.87848 
5.900 685.0 68.643 14.053 28.936 0.22794 0.88207 
5.925 685.0 63.136 13.717 28.817 0.22207 0.88755 
5.950 701.0 68.107 13.562 29.616 0.22531 0.89003 
5.975 701.0 61.247 13.753 29.608 0.22818 0.88696 
6.000 717.0 66.961 14.187 28.570 0.22727 0.87987 
6.025 717.0 60.577 13.676 30.189 0.23103 0.88821 
6.050 738.0 68.147 13.808 29.783 0.23026 0.88607 
6.075 738.0 63.076 13.724 29.698 0.22837 0.88743 
6.100 754.0 67.774 14.050 29.477 0.23177 0.88213 
6.125 754.0 61.490 14.284 29.188 0.23320 0.87826 
6.150 770.0 65.419 14.472 28.539 0.23121 0.87510 
6.175 770.0 60.514 13.778 29.957 0.23101 0.88656 
6.200 780.0 61.211 13.468 30.271 0.22835 0.89151 
6.225 780.0 57.163 14.685 29.074 0.23833 0.87147 
6.250 780.0 52.726 13.457 30.899 0.23245 0.89169 
6.275 780.0 48.280 13.948 29.605 0.23113 0.88381 
6.300 780.0 43.943 14.518 28.474 0.23140 0.87432 
6.325 780.0 40.664 13.572 30.398 0.23085 0.88986 
6.350 780.0 37.149 14.679 28.795 0.23615 0.87157 
6.375 780.0 33.090 14.972 28.922 0.24140 0.86652 
6.400 780.0 29.661 14.173 28.912 0.22955 0.88009 
6.425 780.0 26.429 14.123 29.607 0.23382 0.88092 
6.450 780.0 23.184 14.113 29.259 0.23117 0.88108 
6.475 780.0 20.230 15.440 26.681 0.23045 0.85825 
6.500 780.0 17.641 14.828 27.585 0.22912 0.86901 

# MINIMA:
0.600 379.0 17.641 5.798 2.229 -0.91162 -0.00961 

# MAXIMA:
6.500 3994.2 80.096 45.275 359.854 0.88058 0.97959 

# PEAKS:

# END SPECTRUM


# SPECTRUM:
2

# START TIME:
18:20:28

# END TIME:
18:31:00

# THETA ANGLE:
0.00 ø

# INCIDENCE ANGLE:
60.00 ø

# ACCUMULATION NUMBER:
1

# ELLIPSOMETRIC CONFIGURATION:
+45.00 øModulator
+45.00 øAnalyser

# INTEGRATION TIME:
500 ms

# FIRST POINT:
0.6000 eV

# LAST POINT:
6.5000 eV

# INCREMENT:
0.0250 eV

# NUMBER OF POINTS:
237

# DATA:
eV Hv S0 Psi Delta Is Ic 
0.600 1797.1 63.507 25.768 324.866 -0.45061 0.62203 
0.625 1600.2 77.169 25.004 322.705 -0.46422 0.64267 
0.650 1498.6 75.163 25.473 322.049 -0.47757 0.63005 
0.675 1498.6 74.064 24.567 320.983 -0.47610 0.65429 
0.700 1301.8 70.848 24.846 325.081 -0.43651 0.64690 
0.725 1200.2 69.194 24.133 326.519 -0.41168 0.66567 
0.750 1200.2 72.137 24.003 330.170 -0.36970 0.66904 
0.775 1098.6 70.375 24.849 335.651 -0.31444 0.64683 
0.800 800.1 79.440 25.356 340.721 -0.25554 0.63323 
0.825 997.0 67.984 25.000 345.497 -0.19184 0.64277 
0.850 997.0 65.442 25.079 350.608 -0.12530 0.64068 
0.875 704.9 61.052 24.388 355.694 -0.05647 0.65900 
0.900 901.7 78.242 24.775 1.038 0.01378 0.64878 
0.925 1003.3 77.915 24.910 6.356 0.08458 0.64519 
0.950 1003.3 68.143 25.150 11.561 0.15420 0.63877 
0.975 806.5 83.871 25.158 16.872 0.22335 0.63854 
1.000 1003.3 67.706 24.911 22.131 0.28783 0.64516 
1.025 1003.3 70.251 25.156 26.805 0.34703 0.63860 
1.050 704.9 76.980 25.149 31.352 0.40030 0.63880 
1.075 1003.3 63.884 25.073 35.812 0.44919 0.64082 
1.100 1003.3 67.571 25.287 39.788 0.49432 0.63509 
1.125 1003.3 62.470 25.314 44.331 0.54020 0.63436 
1.150 1003.3 68.357 25.505 48.885 0.58558 0.62918 
1.175 1104.9 75.409 25.850 56.053 0.65103 0.61977 
1.200 1301.8 65.618 26.835 67.665 0.74518 0.59243 
1.225 1104.9 69.611 28.929 74.710 0.81676 0.53202 
1.250 806.5 69.986 31.977 69.293 0.84041 0.43908 
1.275 1505.0 69.433 35.739 56.691 0.79243 0.31767 
1.300 1701.8 65.017 40.546 38.309 0.61242 0.15484 
1.325 2501.9 63.217 44.180 16.308 0.28069 0.02863 
1.350 1600.2 74.739 44.995 346.330 -0.23633 0.00017 
1.375 2000.3 63.741 42.128 323.142 -0.59682 0.10008 
1.400 1701.8 79.186 37.024 300.874 -0.82524 0.27484 
1.425 3898.9 41.856 33.249 289.921 -0.86218 0.39877 
1.450 4000.5 23.804 29.949 283.549 -0.84106 0.50154 
1.475 780.0 114.941 26.419 285.514 -0.76789 0.60408 
1.500 538.0 65.807 25.179 287.082 -0.73608 0.63799 
1.525 632.0 73.616 23.731 295.487 -0.66511 0.67609 
1.550 567.0 72.558 22.942 303.116 -0.60132 0.69610 
1.575 596.0 68.601 22.694 312.121 -0.52801 0.70231 
1.600 596.0 78.145 22.085 319.745 -0.45027 0.71727 
1.625 528.0 71.901 21.908 327.086 -0.37621 0.72157 
1.650 540.0 67.931 21.553 334.421 -0.29504 0.73010 
1.675 527.0 70.340 21.495 342.085 -0.20975 0.73147 
1.700 514.0 69.118 21.182 349.334 -0.12472 0.73888 
1.725 505.0 69.324 21.099 356.899 -0.03634 0.74083 
1.750 505.0 80.252 21.142 4.154 0.04874 0.73983 
1.775 487.0 68.716 20.905 11.598 0.13403 0.74537 
1.800 473.0 69.976 20.883 19.072 0.21764 0.74588 
1.825 473.0 73.558 20.795 26.560 0.29681 0.74791 
1.850 465.0 70.029 20.739 33.973 0.37012 0.74920 
1.875 465.0 72.798 20.652 41.519 0.43752 0.75122 
1.900 465.0 77.164 20.617 49.305 0.49976 0.75202 
1.925 457.0 69.790 20.648 56.990 0.55342 0.75131 
1.950 457.0 70.224 20.635 65.503 0.60024 0.75160 
1.975 457.0 69.215 20.861 73.775 0.63901 0.74638 
2.000 457.0 66.261 21.078 84.650 0.66822 0.74132 
2.025 467.0 70.071 21.568 84.288 0.68035 0.72972 
2.050 477.0 68.463 22.215 72.514 0.66768 0.71411 
2.075 477.0 67.932 22.900 58.612 0.61201 0.69715 
2.100 477.0 60.243 23.647 41.732 0.48915 0.67824 
2.125 491.0 68.115 23.959 23.279 0.29332 0.67019 
2.150 491.0 66.107 23.520 2.463 0.03145 0.68149 
2.175 491.0 70.344 22.291 340.931 -0.22933 0.71225 
2.200 482.0 69.270 20.756 321.298 -0.41442 0.74882 
2.225 472.0 70.177 19.029 302.933 -0.51739 0.78739 
2.250 461.0 70.700 17.577 286.803 -0.55118 0.81762 
2.275 452.0 71.111 16.555 276.875 -0.54231 0.83763 
2.300 443.0 71.303 15.771 283.804 -0.50803 0.85225 
2.325 434.0 70.536 15.128 295.232 -0.45580 0.86378 
2.350 426.0 68.382 14.810 306.218 -0.39874 0.86933 
2.375 426.0 74.837 14.622 316.065 -0.33897 0.87254 
2.400 417.0 70.044 14.534 325.642 -0.27419 0.87405 
2.425 417.0 76.805 14.456 334.449 -0.20852 0.87537 
2.450 404.0 71.092 14.461 342.616 -0.14450 0.87527 
2.475 404.0 76.085 14.393 350.166 -0.08224 0.87643 
2.500 380.0 72.283 14.187 357.779 -0.01842 0.87987 
2.525 380.0 76.653 14.177 4.970 0.04114 0.88002 
2.550 380.0 72.901 14.131 11.729 0.09625 0.88080 
2.575 372.0 69.065 14.008 18.250 0.14710 0.88282 
2.600 372.0 62.069 13.844 24.763 0.19462 0.88550 
2.625 372.0 73.838 13.660 31.097 0.23705 0.88846 
2.650 372.0 78.612 13.628 36.367 0.27156 0.88896 
2.675 372.0 65.666 13.155 42.539 0.29966 0.89641 
2.700 381.0 69.681 12.891 47.691 0.32165 0.90046 
2.725 381.0 62.679 11.950 56.576 0.33814 0.91425 
2.750 381.0 63.198 11.322 63.014 0.34307 0.92292 
2.775 395.0 69.472 11.030 64.599 0.33928 0.92679 
2.800 395.0 65.010 9.744 78.041 0.32637 0.94271 
2.825 395.0 62.192 9.210 73.171 0.30243 0.94877 
2.850 405.0 68.333 8.098 74.438 0.26869 0.96032 
2.875 405.0 64.390 6.878 72.695 0.22704 0.97131 
2.900 405.0 62.419 6.015 60.653 0.18167 0.97804 
2.925 405.0 60.469 5.552 44.623 0.13528 0.98128 
2.950 405.0 61.147 4.054 37.604 0.08606 0.99000 
2.975 414.0 69.108 3.064 24.244 0.04384 0.99429 
3.000 414.0 69.521 1.205 9.622 0.00703 0.99912 
3.025 414.0 68.876 2.556 348.370 -0.01796 0.99602 
3.050 414.0 68.229 1.909 327.958 -0.03532 0.99778 
3.075 414.0 68.261 3.461 338.790 -0.04360 0.99271 
3.100 401.0 71.745 4.121 341.695 -0.04503 0.98967 
3.125 401.0 73.520 4.694 345.434 -0.04103 0.98660 
3.150 401.0 72.688 5.251 350.472 -0.03017 0.98325 
3.175 401.0 71.393 6.006 355.696 -0.01562 0.97810 
3.200 401.0 70.166 6.709 0.559 0.00226 0.97270 
3.225 401.0 68.876 7.011 4.880 0.02061 0.97020 
3.250 401.0 68.169 7.216 9.526 0.04125 0.96845 
3.275 401.0 66.204 7.629 14.344 0.06519 0.96475 
3.300 401.0 63.073 8.078 18.082 0.08636 0.96051 
3.325 410.0 68.862 8.277 22.492 0.10900 0.95855 
3.350 410.0 64.712 8.179 27.640 0.13065 0.95952 
3.375 410.0 63.795 8.232 31.611 0.14855 0.95900 
3.400 410.0 64.529 8.351 34.481 0.16271 0.95781 
3.425 410.0 63.773 8.348 37.234 0.17383 0.95785 
3.450 410.0 61.598 8.041 41.076 0.18201 0.96087 
3.475 419.0 69.269 7.933 43.104 0.18681 0.96191 
3.500 419.0 66.811 7.907 44.383 0.19060 0.96216 
3.525 419.0 63.085 7.571 47.176 0.19159 0.96528 
3.550 419.0 60.098 7.323 49.013 0.19087 0.96751 
3.575 429.0 68.962 7.290 48.862 0.18958 0.96780 
3.600 429.0 66.256 6.999 50.440 0.18648 0.97030 
3.625 429.0 64.182 6.864 50.212 0.18236 0.97143 
3.650 429.0 62.801 6.577 51.382 0.17782 0.97376 
3.675 429.0 60.364 6.356 51.661 0.17260 0.97549 
3.700 438.0 69.426 6.332 50.194 0.16841 0.97567 
3.725 438.0 67.514 6.400 47.623 0.16367 0.97515 
3.750 438.0 66.073 6.312 46.728 0.15914 0.97582 
3.775 438.0 64.226 6.359 45.126 0.15603 0.97546 
3.800 438.0 61.927 6.282 44.413 0.15224 0.97605 
3.825 448.0 68.864 6.305 43.552 0.15042 0.97588 
3.850 448.0 64.406 6.396 42.387 0.14927 0.97518 
3.875 448.0 59.176 6.371 42.031 0.14768 0.97537 
3.900 462.0 68.290 6.511 41.023 0.14789 0.97428 
3.925 462.0 62.498 6.710 39.747 0.14840 0.97269 
3.950 474.0 70.431 6.766 39.463 0.14872 0.97224 
3.975 474.0 64.817 6.759 40.084 0.15052 0.97229 
4.000 483.0 70.333 6.956 39.621 0.15331 0.97067 
4.025 483.0 64.759 7.215 38.649 0.15563 0.96846 
4.050 483.0 60.694 7.191 39.433 0.15778 0.96866 
4.075 494.0 67.078 7.410 39.100 0.16131 0.96674 
4.100 494.0 61.832 7.382 40.114 0.16420 0.96698 
4.125 505.0 68.210 7.465 40.285 0.16659 0.96624 
4.150 505.0 63.452 7.522 40.926 0.17004 0.96572 
4.175 515.0 69.982 7.595 41.474 0.17353 0.96506 
4.200 515.0 65.753 7.518 42.733 0.17604 0.96576 
4.225 515.0 62.758 7.647 42.570 0.17845 0.96458 
4.250 526.0 69.527 7.544 44.452 0.18229 0.96553 
4.275 526.0 66.039 7.687 43.981 0.18410 0.96422 
4.300 494.0 70.384 8.626 38.432 0.18434 0.95501 
4.325 494.0 73.653 8.945 37.114 0.18537 0.95164 
4.350 494.0 76.178 9.199 36.504 0.18775 0.94889 
4.375 494.0 78.730 9.515 35.552 0.18959 0.94534 
4.400 484.0 69.685 9.054 37.935 0.19108 0.95047 
4.425 484.0 70.416 8.973 38.799 0.19306 0.95135 
4.450 484.0 71.072 9.167 37.639 0.19210 0.94923 
4.475 484.0 71.166 9.354 37.225 0.19403 0.94717 
4.500 484.0 71.659 9.072 38.768 0.19500 0.95027 
4.525 484.0 72.136 9.252 38.244 0.19645 0.94831 
4.550 484.0 71.093 8.951 39.337 0.19486 0.95158 
4.575 484.0 69.904 9.144 38.423 0.19500 0.94950 
4.600 484.0 68.959 8.895 40.051 0.19659 0.95219 
4.625 484.0 67.607 8.299 43.929 0.19817 0.95834 
4.650 484.0 65.230 8.519 42.361 0.19743 0.95611 
4.675 484.0 63.566 9.303 38.227 0.19744 0.94773 
4.700 484.0 61.616 8.834 40.717 0.19798 0.95283 
4.725 484.0 60.009 8.968 40.304 0.19920 0.95140 
4.750 495.0 68.454 9.059 39.761 0.19889 0.95042 
4.775 495.0 65.570 8.725 41.981 0.20058 0.95398 
4.800 495.0 62.804 9.080 40.171 0.20104 0.95019 
4.825 495.0 61.107 8.897 41.036 0.20063 0.95216 
4.850 507.0 69.797 8.970 40.665 0.20071 0.95138 
4.875 507.0 68.185 8.683 42.991 0.20352 0.95442 
4.900 507.0 65.530 9.188 39.922 0.20232 0.94900 
4.925 507.0 63.552 9.374 39.356 0.20381 0.94694 
4.950 507.0 61.210 8.652 43.794 0.20585 0.95474 
4.975 518.0 69.464 8.764 43.215 0.20623 0.95357 
5.000 518.0 67.551 9.759 38.165 0.20644 0.94254 
5.025 518.0 64.855 8.933 43.053 0.20945 0.95177 
5.050 518.0 62.195 9.304 41.204 0.21021 0.94772 
5.075 518.0 59.793 9.332 41.096 0.21035 0.94742 
5.100 531.0 69.127 9.368 41.011 0.21079 0.94700 
5.125 531.0 66.739 9.161 42.209 0.21120 0.94930 
5.150 531.0 63.538 9.228 42.242 0.21283 0.94856 
5.175 531.0 60.552 9.351 42.335 0.21595 0.94720 
5.200 543.0 68.601 9.682 40.686 0.21615 0.94343 
5.225 543.0 65.190 9.892 40.005 0.21759 0.94097 
5.250 543.0 62.956 9.108 44.122 0.21764 0.94988 
5.275 554.0 69.177 9.577 41.741 0.21845 0.94464 
5.300 554.0 67.068 9.700 41.646 0.22074 0.94322 
5.325 554.0 64.034 9.483 42.839 0.22098 0.94572 
5.350 554.0 60.824 9.220 44.890 0.22323 0.94866 
5.375 566.0 69.100 9.238 44.397 0.22171 0.94846 
5.400 566.0 66.860 9.468 43.405 0.22299 0.94588 
5.425 566.0 64.192 9.370 44.180 0.22390 0.94699 
5.450 566.0 61.546 9.601 43.044 0.22450 0.94436 
5.475 577.0 68.255 9.796 42.395 0.22608 0.94211 
5.500 577.0 65.409 10.288 40.427 0.22792 0.93620 
5.525 577.0 62.832 9.292 45.857 0.22868 0.94786 
5.550 589.0 69.114 9.995 42.206 0.22967 0.93975 
5.575 589.0 65.687 9.600 44.145 0.22905 0.94438 
5.600 589.0 62.316 9.935 42.865 0.23121 0.94047 
5.625 589.0 59.321 9.876 43.951 0.23455 0.94116 
5.650 605.0 68.370 9.958 42.774 0.23134 0.94019 
5.675 605.0 64.438 9.977 43.722 0.23587 0.93997 
5.700 605.0 60.527 9.685 45.642 0.23714 0.94340 
5.725 622.0 69.862 9.905 44.075 0.23574 0.94082 
5.750 622.0 65.325 9.922 44.593 0.23831 0.94063 
5.775 622.0 61.072 9.833 45.581 0.24036 0.94167 
5.800 634.0 65.198 10.040 43.959 0.23831 0.93922 
5.825 634.0 60.121 10.166 43.704 0.24006 0.93770 
5.850 649.0 67.001 9.662 46.839 0.24139 0.94366 
5.875 649.0 61.309 9.964 45.559 0.24334 0.94013 
5.900 666.0 68.031 10.499 42.725 0.24313 0.93359 
5.925 666.0 62.948 10.148 44.170 0.24170 0.93791 
5.950 681.0 68.154 9.609 47.565 0.24293 0.94428 
5.975 681.0 61.561 9.948 46.460 0.24669 0.94031 
6.000 698.0 68.332 10.090 45.053 0.24416 0.93861 
6.025 698.0 61.514 9.915 46.937 0.24785 0.94070 
6.050 713.0 66.753 10.179 46.220 0.25117 0.93754 
6.075 713.0 61.064 10.258 45.312 0.24916 0.93658 
6.100 729.0 65.812 9.720 48.997 0.25117 0.94299 
6.125 729.0 59.560 9.521 50.187 0.25062 0.94528 
6.150 751.0 68.290 10.677 43.861 0.25232 0.93134 
6.175 751.0 62.978 9.753 49.823 0.25511 0.94261 
6.200 769.0 68.833 10.172 47.339 0.25565 0.93762 
6.225 769.0 63.251 9.830 49.445 0.25562 0.94170 
6.250 769.0 58.993 10.761 44.136 0.25547 0.93027 
6.275 780.0 59.903 11.088 42.829 0.25660 0.92603 
6.300 780.0 55.120 10.697 43.024 0.24890 0.93109 
6.325 780.0 50.477 11.168 41.492 0.25179 0.92497 
6.350 780.0 45.319 10.523 45.411 0.25574 0.93330 
6.375 780.0 41.207 10.504 45.242 0.25456 0.93354 
6.400 780.0 36.446 10.808 44.066 0.25622 0.92967 
6.425 780.0 32.917 11.414 41.063 0.25485 0.92168 
6.450 780.0 28.733 10.805 44.950 0.26019 0.92971 
6.475 780.0 25.194 11.119 41.754 0.25203 0.92562 
6.500 780.0 21.680 11.967 38.696 0.25363 0.91401 

# MINIMA:
0.600 372.0 21.680 1.205 0.559 -0.86218 0.00017 

# MAXIMA:
6.500 4000.5 114.941 44.995 357.779 0.84041 0.99912 

# PEAKS:

# END SPECTRUM


# SPECTRUM:
3

# START TIME:
18:31:44

# END TIME:
18:42:08

# THETA ANGLE:
0.00 ø

# INCIDENCE ANGLE:
65.00 ø

# ACCUMULATION NUMBER:
1

# ELLIPSOMETRIC CONFIGURATION:
+45.00 øModulator
+45.00 øAnalyser

# INTEGRATION TIME:
500 ms

# FIRST POINT:
0.6000 eV

# LAST POINT:
6.5000 eV

# INCREMENT:
0.0250 eV

# NUMBER OF POINTS:
237

# DATA:
eV Hv S0 Psi Delta Is Ic 
0.600 1797.1 61.777 23.331 319.072 -0.47647 0.68631 
0.625 1600.2 77.066 24.109 319.025 -0.48897 0.66629 
0.650 1498.6 75.426 21.263 310.085 -0.51715 0.73697 
0.675 1498.6 74.294 21.157 311.323 -0.50557 0.73947 
0.700 1301.8 72.586 21.143 311.081 -0.50716 0.73980 
0.725 1200.2 70.437 19.876 310.740 -0.48451 0.76882 
0.750 1200.2 73.480 20.328 317.531 -0.43991 0.75863 
0.775 1098.6 72.935 20.344 323.411 -0.38861 0.75826 
0.800 704.9 61.886 18.983 327.135 -0.33384 0.78838 
0.825 1003.3 70.236 18.755 333.967 -0.26724 0.79324 
0.850 1003.3 67.302 19.099 342.089 -0.19018 0.78588 
0.875 704.9 63.533 18.628 349.453 -0.11081 0.79594 
0.900 901.7 78.832 18.912 357.510 -0.02664 0.78990 
0.925 1003.3 80.232 19.377 5.136 0.05604 0.77984 
0.950 1003.3 69.796 19.034 13.213 0.14094 0.78727 
0.975 711.2 61.707 19.558 20.527 0.22122 0.77588 
1.000 1009.7 70.583 19.506 28.025 0.29577 0.77702 
1.025 1009.7 73.319 19.759 35.070 0.36562 0.77143 
1.050 711.2 79.281 20.621 40.128 0.42488 0.75193 
1.075 1009.7 66.873 20.905 45.944 0.47910 0.74537 
1.100 1009.7 71.708 21.214 51.631 0.52896 0.73813 
1.125 1009.7 67.503 21.807 56.550 0.57554 0.72401 
1.150 1009.7 74.964 22.891 59.766 0.61921 0.69738 
1.175 1009.7 68.435 24.314 64.102 0.67507 0.66095 
1.200 1206.5 64.483 26.155 68.910 0.73832 0.61140 
1.225 1009.7 74.517 28.607 67.536 0.77691 0.54150 
1.250 711.2 70.363 31.993 59.310 0.77282 0.43860 
1.275 1212.9 60.706 35.069 51.009 0.73101 0.33974 
1.300 1314.5 62.595 39.216 38.519 0.61012 0.20054 
1.325 1612.9 61.077 42.759 23.762 0.40170 0.07816 
1.350 1314.5 77.810 45.091 3.046 0.05314 -0.00319 
1.375 1714.5 70.156 44.427 344.340 -0.26988 0.01999 
1.400 1517.7 78.164 41.025 324.151 -0.58002 0.13831 
1.425 3918.0 46.765 37.399 312.069 -0.71636 0.26221 
1.450 3918.0 25.044 33.307 300.844 -0.78804 0.39692 
1.475 780.0 116.656 28.544 291.972 -0.77852 0.54336 
1.500 539.0 67.738 26.551 281.980 -0.78230 0.60038 
1.525 618.0 62.849 24.221 280.225 -0.73640 0.66338 
1.550 568.0 72.926 22.355 279.909 -0.69302 0.71068 
1.575 593.0 65.331 20.317 283.128 -0.63422 0.75887 
1.600 593.0 74.176 19.196 294.481 -0.56521 0.78378 
1.625 529.0 72.487 18.243 303.886 -0.49364 0.80399 
1.650 542.0 69.197 17.041 313.036 -0.40960 0.82823 
1.675 528.0 70.643 16.515 323.848 -0.32155 0.83839 
1.700 516.0 70.161 15.772 334.638 -0.22409 0.85224 
1.725 507.0 70.644 15.358 345.854 -0.12483 0.85971 
1.750 496.0 69.208 15.055 357.437 -0.02244 0.86507 
1.775 496.0 78.656 14.959 8.931 0.07743 0.86673 
1.800 471.0 68.210 14.972 20.815 0.17738 0.86651 
1.825 471.0 73.520 15.267 31.829 0.26794 0.86133 
1.850 463.0 70.223 15.893 42.017 0.35258 0.85001 
1.875 463.0 74.078 16.316 52.698 0.42893 0.84215 
1.900 455.0 70.982 16.919 63.091 0.49656 0.83061 
1.925 455.0 73.882 17.694 72.001 0.55078 0.81524 
1.950 455.0 75.565 18.545 80.447 0.59470 0.79770 
1.975 455.0 78.206 19.527 84.001 0.62661 0.77655 
2.000 455.0 78.780 20.538 80.664 0.64837 0.75383 
2.025 455.0 73.532 21.795 71.554 0.65406 0.72430 
2.050 455.0 65.196 23.145 62.378 0.64046 0.69100 
2.075 455.0 67.940 24.544 52.283 0.59781 0.65489 
2.100 455.0 63.839 25.971 41.097 0.51757 0.61647 
2.125 465.0 69.348 27.129 29.029 0.39386 0.58415 
2.150 465.0 64.860 27.656 15.388 0.21819 0.56910 
2.175 465.0 65.457 27.380 0.828 0.01180 0.57701 
2.200 465.0 68.989 26.207 346.533 -0.18455 0.60995 
2.225 465.0 76.233 24.263 332.855 -0.34184 0.66228 
2.250 451.0 68.473 22.017 320.479 -0.44232 0.71893 
2.275 451.0 77.615 19.777 309.587 -0.49076 0.77103 
2.300 438.0 70.124 17.442 298.648 -0.50189 0.82032 
2.325 438.0 78.901 15.273 287.425 -0.48491 0.86122 
2.350 425.0 70.192 13.538 277.059 -0.45171 0.89041 
2.375 425.0 75.607 12.036 273.309 -0.40720 0.91304 
2.400 414.0 68.256 10.548 283.212 -0.35040 0.93298 
2.425 414.0 73.667 9.337 295.563 -0.28884 0.94735 
2.450 402.0 69.587 8.426 309.467 -0.22381 0.95705 
2.475 402.0 74.925 7.638 322.871 -0.15902 0.96467 
2.500 375.0 69.247 7.076 338.463 -0.08976 0.96965 
2.525 375.0 74.438 6.682 354.157 -0.02353 0.97292 
2.550 375.0 70.550 6.767 9.786 0.03978 0.97223 
2.575 375.0 79.191 7.533 21.881 0.09687 0.96563 
2.600 375.0 72.495 7.034 39.098 0.15329 0.97001 
2.625 364.0 69.975 7.509 51.115 0.20171 0.96584 
2.650 364.0 75.311 8.691 54.296 0.24258 0.95434 
2.675 364.0 63.548 9.000 63.139 0.27569 0.95105 
2.700 372.0 67.584 9.605 67.047 0.30297 0.94432 
2.725 372.0 61.165 9.696 77.236 0.32383 0.94327 
2.750 372.0 62.489 10.065 76.706 0.33493 0.93891 
2.775 385.0 69.245 10.693 67.111 0.33594 0.93115 
2.800 385.0 65.134 10.720 64.574 0.33011 0.93080 
2.825 385.0 63.122 10.723 59.440 0.31485 0.93076 
2.850 393.0 68.173 10.987 50.990 0.29075 0.92736 
2.875 393.0 64.963 10.880 44.413 0.25944 0.92874 
2.900 393.0 62.248 10.853 37.146 0.22333 0.92909 
2.925 393.0 60.416 10.579 30.675 0.18413 0.93259 
2.950 393.0 59.296 10.283 23.648 0.14090 0.93627 
2.975 403.0 69.635 9.645 17.532 0.09952 0.94386 
3.000 403.0 68.480 8.742 11.617 0.06050 0.95380 
3.025 403.0 67.389 8.081 5.998 0.02909 0.96047 
3.050 403.0 66.169 7.503 1.041 0.00470 0.96590 
3.075 403.0 64.990 6.656 356.793 -0.01288 0.97313 
3.100 393.0 71.848 5.601 352.848 -0.02418 0.98095 
3.125 393.0 71.758 4.641 349.894 -0.02830 0.98691 
3.150 393.0 70.754 3.599 348.191 -0.02564 0.99212 
3.175 393.0 67.681 3.363 350.947 -0.01843 0.99312 
3.200 393.0 67.687 2.486 355.992 -0.00606 0.99624 
3.225 393.0 66.397 2.781 4.900 0.00828 0.99529 
3.250 393.0 65.261 2.549 16.842 0.02575 0.99604 
3.275 393.0 63.249 1.607 56.481 0.04674 0.99843 
3.300 393.0 60.393 2.777 43.871 0.06708 0.99530 
3.325 403.0 67.828 3.758 42.824 0.08891 0.99141 
3.350 403.0 63.415 3.328 76.334 0.11261 0.99326 
3.375 403.0 64.021 3.680 90.000 0.13214 0.99176 
3.400 403.0 64.060 4.569 68.792 0.14805 0.98731 
3.425 403.0 63.652 4.718 80.187 0.16155 0.98647 
3.450 403.0 61.911 5.128 75.290 0.17222 0.98402 
3.475 403.0 59.619 5.413 73.710 0.18028 0.98220 
3.500 413.0 68.407 6.060 61.740 0.18495 0.97771 
3.525 413.0 65.304 5.803 69.778 0.18878 0.97956 
3.550 413.0 62.805 6.297 61.117 0.19093 0.97594 
3.575 413.0 59.741 6.298 61.458 0.19157 0.97593 
3.600 422.0 68.788 6.732 54.855 0.19038 0.97252 
3.625 422.0 65.586 6.642 55.165 0.18861 0.97324 
3.650 422.0 63.735 6.399 56.608 0.18494 0.97516 
3.675 422.0 62.434 6.503 53.856 0.18174 0.97435 
3.700 422.0 62.021 6.730 49.830 0.17787 0.97253 
3.725 422.0 59.854 6.678 48.976 0.17427 0.97296 
3.750 431.0 68.094 6.678 47.539 0.17042 0.97295 
3.775 431.0 66.116 6.796 45.074 0.16639 0.97199 
3.800 431.0 63.986 6.630 45.505 0.16362 0.97334 
3.825 431.0 59.686 6.721 43.663 0.16050 0.97261 
3.850 442.0 67.324 6.525 44.933 0.15948 0.97417 
3.875 442.0 61.859 6.467 44.875 0.15792 0.97463 
3.900 454.0 69.745 6.603 43.342 0.15681 0.97355 
3.925 454.0 63.391 6.398 44.848 0.15619 0.97517 
3.950 454.0 59.063 6.545 43.570 0.15611 0.97401 
3.975 468.0 69.203 6.713 42.630 0.15726 0.97267 
4.000 468.0 64.139 6.535 44.476 0.15843 0.97410 
4.025 478.0 68.695 6.655 44.068 0.16013 0.97314 
4.050 478.0 64.663 6.707 44.183 0.16167 0.97272 
4.075 478.0 61.254 6.972 42.861 0.16392 0.97053 
4.100 491.0 69.145 6.747 45.202 0.16558 0.97239 
4.125 491.0 64.748 6.719 46.334 0.16811 0.97262 
4.150 491.0 60.175 7.072 44.580 0.17151 0.96969 
4.175 504.0 68.257 6.959 46.694 0.17504 0.97064 
4.200 504.0 65.169 6.833 48.994 0.17829 0.97169 
4.225 504.0 62.170 6.912 49.239 0.18097 0.97104 
4.250 504.0 57.972 7.076 48.679 0.18362 0.96965 
4.275 517.0 67.148 7.236 48.165 0.18620 0.96827 
4.300 482.0 67.557 7.661 44.916 0.18656 0.96446 
4.325 482.0 69.595 8.096 43.032 0.19030 0.96033 
4.350 482.0 73.452 8.546 40.704 0.19168 0.95583 
4.375 482.0 75.293 8.415 41.931 0.19347 0.95717 
4.400 482.0 79.041 8.615 40.805 0.19357 0.95512 
4.425 474.0 70.255 9.601 36.142 0.19399 0.94436 
4.450 474.0 71.756 8.453 42.581 0.19677 0.95678 
4.475 474.0 71.819 8.995 39.915 0.19818 0.95111 
4.500 474.0 71.218 8.997 40.349 0.20001 0.95109 
4.525 474.0 71.684 9.102 39.693 0.19952 0.94995 
4.550 474.0 70.724 8.671 42.409 0.20103 0.95454 
4.575 474.0 69.696 8.205 45.448 0.20131 0.95927 
4.600 474.0 68.900 9.258 39.386 0.20151 0.94823 
4.625 474.0 67.653 8.505 43.788 0.20245 0.95625 
4.650 474.0 65.334 8.869 41.369 0.20136 0.95246 
4.675 474.0 63.390 9.650 38.156 0.20420 0.94380 
4.700 474.0 62.181 8.874 41.951 0.20377 0.95241 
4.725 474.0 60.778 8.411 44.663 0.20343 0.95721 
4.750 474.0 58.117 8.510 44.322 0.20450 0.95621 
4.775 486.0 66.707 9.165 40.739 0.20524 0.94926 
4.800 486.0 66.387 8.823 42.587 0.20514 0.95295 
4.825 486.0 61.471 8.922 42.292 0.20620 0.95189 
4.850 486.0 58.960 8.445 45.066 0.20567 0.95687 
4.875 499.0 71.650 8.843 43.239 0.20811 0.95274 
4.900 499.0 68.384 8.875 43.175 0.20859 0.95240 
4.925 499.0 65.907 9.053 42.243 0.20893 0.95048 
4.950 499.0 62.928 9.126 42.177 0.21029 0.94969 
4.975 499.0 61.388 9.262 41.501 0.21051 0.94820 
5.000 511.0 72.423 9.145 42.416 0.21167 0.94949 
5.025 511.0 69.924 8.792 45.054 0.21382 0.95328 
5.050 511.0 64.758 8.730 45.597 0.21436 0.95393 
5.075 511.0 64.677 9.135 43.456 0.21563 0.94959 
5.100 511.0 61.188 8.910 44.670 0.21515 0.95202 
5.125 523.0 70.156 9.068 44.103 0.21663 0.95032 
5.150 523.0 67.009 8.602 47.126 0.21676 0.95526 
5.175 523.0 63.531 9.185 44.087 0.21926 0.94905 
5.200 523.0 61.907 8.875 46.467 0.22102 0.95239 
5.225 536.0 70.484 8.917 46.133 0.22080 0.95195 
5.250 536.0 67.418 9.405 44.039 0.22413 0.94659 
5.275 536.0 63.634 9.211 44.805 0.22269 0.94875 
5.300 536.0 60.907 9.160 45.410 0.22386 0.94931 
5.325 547.0 68.155 9.582 43.070 0.22418 0.94458 
5.350 547.0 65.413 9.507 43.842 0.22568 0.94544 
5.375 547.0 63.738 9.775 42.901 0.22780 0.94234 
5.400 547.0 59.573 9.815 42.732 0.22796 0.94188 
5.425 559.0 67.817 9.475 44.668 0.22829 0.94581 
5.450 559.0 65.892 9.612 43.809 0.22793 0.94424 
5.475 559.0 62.900 9.648 44.048 0.22975 0.94383 
5.500 559.0 60.634 9.610 44.991 0.23273 0.94427 
5.525 573.0 69.570 9.740 43.893 0.23121 0.94275 
5.550 573.0 65.101 9.514 45.751 0.23355 0.94535 
5.575 573.0 62.735 10.100 42.497 0.23326 0.93849 
5.600 585.0 70.290 9.892 43.845 0.23446 0.94098 
5.625 585.0 65.301 10.216 42.258 0.23476 0.93708 
5.650 585.0 62.011 9.880 44.614 0.23744 0.94112 
5.675 596.0 67.461 9.928 44.658 0.23874 0.94055 
5.700 596.0 63.409 10.210 43.143 0.23859 0.93716 
5.725 596.0 59.877 10.332 42.413 0.23801 0.93567 
5.750 611.0 67.363 10.194 43.987 0.24194 0.93736 
5.775 611.0 62.692 9.787 46.397 0.24260 0.94221 
5.800 628.0 72.536 9.899 46.031 0.24376 0.94090 
5.825 628.0 66.158 10.163 44.622 0.24400 0.93773 
5.850 628.0 61.244 10.145 44.180 0.24166 0.93795 
5.875 643.0 67.245 9.924 46.909 0.24795 0.94060 
5.900 643.0 61.333 9.991 46.259 0.24689 0.93980 
5.925 659.0 67.309 9.981 46.925 0.24937 0.93992 
5.950 659.0 62.446 10.005 46.853 0.24967 0.93963 
5.975 672.0 64.810 10.332 45.158 0.25022 0.93566 
6.000 685.0 68.374 10.483 44.404 0.25038 0.93379 
6.025 685.0 61.865 10.382 44.895 0.25022 0.93505 
6.050 705.0 70.795 10.463 44.483 0.25026 0.93405 
6.075 705.0 64.425 10.574 44.672 0.25364 0.93266 
6.100 705.0 59.830 10.454 44.755 0.25126 0.93416 
6.125 724.0 65.257 10.647 44.775 0.25577 0.93173 
6.150 724.0 60.482 10.627 44.691 0.25493 0.93199 
6.175 744.0 68.014 10.764 43.826 0.25411 0.93023 
6.200 744.0 63.623 10.567 45.608 0.25763 0.93274 
6.225 761.0 67.940 10.502 46.171 0.25857 0.93356 
6.250 761.0 62.784 10.579 45.768 0.25862 0.93259 
6.275 777.0 67.764 11.281 42.027 0.25688 0.92346 
6.300 777.0 61.635 10.615 44.900 0.25561 0.93213 
6.325 780.0 58.556 11.219 41.313 0.25198 0.92429 
6.350 780.0 52.537 11.255 42.841 0.26032 0.92381 
6.375 780.0 47.467 10.553 46.979 0.26328 0.93291 
6.400 780.0 43.436 11.502 41.150 0.25716 0.92047 
6.425 780.0 37.725 11.364 42.430 0.26068 0.92234 
6.450 780.0 32.643 11.895 41.320 0.26634 0.91503 
6.475 780.0 29.191 11.563 41.553 0.26051 0.91965 
6.500 780.0 24.725 11.812 40.449 0.25998 0.91620 

# MINIMA:
0.600 364.0 24.725 1.607 0.828 -0.78804 -0.00319 

# MAXIMA:
6.500 3918.0 116.656 45.091 357.510 0.77691 0.99843 

# PEAKS:

# END SPECTRUM


# SPECTRUM:
4

# START TIME:
18:42:52

# END TIME:
18:53:19

# THETA ANGLE:
0.00 ø

# INCIDENCE ANGLE:
70.00 ø

# ACCUMULATION NUMBER:
1

# ELLIPSOMETRIC CONFIGURATION:
+45.00 øModulator
+45.00 øAnalyser

# INTEGRATION TIME:
500 ms

# FIRST POINT:
0.6000 eV

# LAST POINT:
6.5000 eV

# INCREMENT:
0.0250 eV

# NUMBER OF POINTS:
237

# DATA:
eV Hv S0 Psi Delta Is Ic 
0.600 1797.1 61.253 24.731 324.598 -0.44026 0.64996 
0.625 1600.2 78.380 23.261 318.071 -0.48487 0.68808 
0.650 1498.6 79.009 21.993 312.578 -0.51139 0.71951 
0.675 1498.6 77.075 21.701 312.416 -0.50727 0.72655 
0.700 1301.8 77.166 19.142 301.865 -0.52619 0.78494 
0.725 1200.2 75.211 18.255 300.510 -0.51259 0.80374 
0.750 1200.2 79.397 16.924 299.885 -0.48292 0.83052 
0.775 1098.6 75.791 16.091 303.978 -0.44166 0.84637 
0.800 698.5 61.304 14.470 306.519 -0.38890 0.87512 
0.825 997.0 72.367 11.586 303.748 -0.32720 0.91932 
0.850 997.0 71.149 10.722 316.343 -0.25238 0.93078 
0.875 698.5 64.450 10.639 333.311 -0.16299 0.93183 
0.900 889.0 78.878 10.977 348.873 -0.07215 0.92749 
0.925 889.0 60.234 9.788 3.963 0.02315 0.94220 
0.950 990.6 68.870 10.045 20.093 0.11800 0.93915 
0.975 793.8 83.300 11.139 33.431 0.20885 0.92536 
1.000 990.6 67.960 12.934 41.758 0.29058 0.89980 
1.025 990.6 69.811 13.651 52.978 0.36622 0.88860 
1.050 692.2 75.760 15.477 56.261 0.42773 0.85758 
1.075 990.6 63.158 16.969 59.832 0.48267 0.82965 
1.100 990.6 68.649 18.621 60.382 0.52612 0.79608 
1.125 990.6 67.294 20.170 61.895 0.57100 0.76221 
1.150 990.6 75.316 21.853 61.849 0.60922 0.72290 
1.175 990.6 70.967 24.013 61.185 0.65139 0.66880 
1.200 1187.5 74.102 26.793 58.902 0.68910 0.59361 
1.225 889.0 69.469 29.788 54.244 0.69977 0.50639 
1.250 616.0 62.451 32.756 48.464 0.68121 0.41450 
1.275 1117.6 69.881 35.587 42.318 0.63723 0.32268 
1.300 1117.6 65.068 38.815 34.211 0.54920 0.21421 
1.325 1416.1 67.970 41.823 24.439 0.41118 0.11068 
1.350 1016.0 69.509 44.454 10.534 0.18278 0.01905 
1.375 1517.7 73.776 45.052 356.968 -0.05290 -0.00183 
1.400 1320.8 78.839 43.561 340.911 -0.32663 0.05021 
1.425 3918.0 56.456 41.093 330.222 -0.49203 0.13597 
1.450 3918.0 29.315 37.533 319.980 -0.62134 0.25770 
1.475 780.0 125.815 32.687 312.059 -0.67493 0.41670 
1.500 533.0 67.579 30.308 304.569 -0.71750 0.49067 
1.525 615.0 63.913 27.339 299.228 -0.71203 0.57817 
1.550 563.0 70.519 24.682 292.547 -0.70086 0.65125 
1.575 592.0 67.255 22.125 286.898 -0.66767 0.71629 
1.600 592.0 76.897 19.429 273.678 -0.62609 0.77871 
1.625 526.0 72.939 17.723 280.854 -0.56956 0.81466 
1.650 539.0 68.546 15.225 279.973 -0.49913 0.86207 
1.675 527.0 72.591 13.252 291.015 -0.41659 0.89490 
1.700 514.0 69.303 10.894 300.081 -0.32119 0.92856 
1.725 514.0 79.984 9.399 317.868 -0.21616 0.94666 
1.750 496.0 70.947 8.091 337.311 -0.10750 0.96038 
1.775 484.0 67.102 7.374 1.308 0.00581 0.96706 
1.800 470.0 67.274 7.653 27.037 0.11999 0.96453 
1.825 470.0 73.674 8.812 48.044 0.22516 0.95306 
1.850 461.0 69.758 10.593 62.115 0.31944 0.93241 
1.875 461.0 74.824 12.143 76.956 0.40069 0.91150 
1.900 448.0 67.319 14.100 84.165 0.47011 0.88130 
1.925 448.0 71.933 15.988 81.190 0.52332 0.84827 
1.950 448.0 78.543 17.809 75.444 0.56368 0.81292 
1.975 448.0 81.448 19.551 69.001 0.58881 0.77603 
2.000 437.0 70.821 21.358 62.552 0.60199 0.73473 
2.025 437.0 69.743 23.145 56.093 0.59991 0.69102 
2.050 437.0 60.782 24.886 49.776 0.58293 0.64584 
2.075 437.0 68.062 26.639 42.953 0.54616 0.59794 
2.100 437.0 66.729 28.392 35.459 0.48534 0.54780 
2.125 437.0 62.080 29.789 27.707 0.40093 0.50638 
2.150 437.0 61.505 30.906 18.753 0.28335 0.47236 
2.175 437.0 61.315 31.359 9.091 0.14043 0.45838 
2.200 437.0 62.102 31.062 359.119 -0.01359 0.46755 
2.225 437.0 65.756 29.891 349.356 -0.15961 0.50329 
2.250 437.0 68.674 28.080 340.505 -0.27719 0.55687 
2.275 437.0 77.063 25.961 332.936 -0.35815 0.61674 
2.300 426.0 67.546 23.534 325.973 -0.40971 0.68113 
2.325 426.0 74.154 20.944 319.785 -0.43108 0.74446 
2.350 418.0 71.233 18.512 314.562 -0.42902 0.79839 
2.375 418.0 73.940 16.135 310.167 -0.40799 0.84555 
2.400 418.0 77.533 13.774 306.101 -0.37370 0.88662 
2.425 406.0 69.871 11.506 303.169 -0.32724 0.92042 
2.450 397.0 68.207 9.304 300.891 -0.27384 0.94772 
2.475 397.0 76.228 7.252 300.543 -0.21568 0.96813 
2.500 373.0 70.385 5.446 307.751 -0.14942 0.98198 
2.525 373.0 77.438 3.535 316.844 -0.08420 0.99239 
2.550 373.0 74.277 2.572 347.805 -0.01894 0.99597 
2.575 365.0 72.361 3.566 19.559 0.04156 0.99226 
2.600 365.0 64.626 4.443 40.803 0.10094 0.98800 
2.625 365.0 77.033 5.979 47.936 0.15382 0.97830 
2.650 356.0 72.362 7.641 48.684 0.19796 0.96464 
2.675 356.0 60.439 8.946 49.774 0.23457 0.95163 
2.700 366.0 68.453 10.166 49.914 0.26582 0.93770 
2.725 366.0 62.761 11.405 48.179 0.28890 0.92180 
2.750 366.0 64.642 12.319 46.607 0.30293 0.90896 
2.775 375.0 68.363 13.682 42.023 0.30771 0.88810 
2.800 375.0 64.358 14.398 39.382 0.30564 0.87633 
2.825 375.0 62.660 15.171 35.970 0.29672 0.86302 
2.850 383.0 67.415 15.778 32.270 0.27942 0.85212 
2.875 383.0 65.406 16.294 28.406 0.25622 0.84256 
2.900 383.0 61.078 16.703 24.567 0.22890 0.83479 
2.925 383.0 62.157 16.992 20.810 0.19858 0.82919 
2.950 383.0 61.688 17.017 16.971 0.16337 0.82870 
2.975 391.0 67.009 16.805 13.455 0.12880 0.83283 
3.000 391.0 65.807 16.521 10.060 0.09525 0.83827 
3.025 391.0 63.314 16.031 6.968 0.06440 0.84747 
3.050 391.0 63.033 15.568 4.345 0.03917 0.85593 
3.075 391.0 62.392 14.952 2.096 0.01823 0.86686 
3.100 382.0 65.503 14.141 0.248 0.00205 0.88062 
3.125 382.0 67.190 13.414 359.076 -0.00728 0.89236 
3.150 382.0 65.714 12.687 358.416 -0.01185 0.90353 
3.175 382.0 64.419 12.021 358.418 -0.01125 0.91324 
3.200 382.0 63.507 11.439 359.155 -0.00573 0.92133 
3.225 382.0 59.714 10.858 0.511 0.00330 0.92903 
3.250 382.0 58.509 10.320 2.553 0.01570 0.93582 
3.275 394.0 73.910 9.928 5.362 0.03174 0.94055 
3.300 394.0 70.049 9.891 8.306 0.04889 0.94099 
3.325 394.0 65.264 9.564 12.180 0.06913 0.94479 
3.350 394.0 61.131 9.395 16.238 0.09007 0.94671 
3.375 394.0 61.274 9.468 19.531 0.10849 0.94588 
3.400 394.0 62.346 9.807 21.757 0.12443 0.94197 
3.425 394.0 63.408 10.139 23.606 0.13878 0.93802 
3.450 394.0 61.071 10.517 24.642 0.14965 0.93337 
3.475 403.0 68.628 11.028 25.094 0.15926 0.92681 
3.500 403.0 66.790 11.361 25.368 0.16549 0.92238 
3.525 403.0 63.871 11.607 25.667 0.17073 0.91904 
3.550 403.0 62.673 11.863 25.669 0.17429 0.91548 
3.575 412.0 68.549 12.134 25.308 0.17569 0.91164 
3.600 412.0 67.207 12.472 24.852 0.17724 0.90672 
3.625 412.0 65.968 12.512 24.613 0.17618 0.90613 
3.650 412.0 63.942 12.701 24.091 0.17510 0.90332 
3.675 412.0 63.164 12.757 23.639 0.17272 0.90248 
3.700 412.0 60.011 12.816 23.197 0.17040 0.90159 
3.725 421.0 71.305 12.968 22.540 0.16766 0.89928 
3.750 421.0 66.879 13.035 21.987 0.16454 0.89826 
3.775 421.0 67.747 13.131 21.449 0.16180 0.89678 
3.800 421.0 63.469 13.059 21.206 0.15923 0.89790 
3.825 421.0 60.890 12.980 20.954 0.15654 0.89911 
3.850 432.0 66.942 13.047 20.540 0.15432 0.89808 
3.875 432.0 63.662 13.035 20.255 0.15215 0.89826 
3.900 442.0 69.445 12.994 20.328 0.15222 0.89889 
3.925 442.0 63.408 13.019 20.116 0.15097 0.89850 
3.950 452.0 66.498 13.005 20.038 0.15025 0.89872 
3.975 452.0 64.253 12.926 20.192 0.15051 0.89993 
4.000 452.0 57.968 12.896 20.246 0.15057 0.90039 
4.025 464.0 65.366 12.876 20.427 0.15163 0.90069 
4.050 464.0 62.469 12.855 20.702 0.15336 0.90100 
4.075 475.0 68.421 12.955 20.752 0.15483 0.89948 
4.100 475.0 64.437 12.944 21.080 0.15704 0.89964 
4.125 475.0 60.714 12.934 21.328 0.15868 0.89981 
4.150 489.0 68.687 12.905 21.739 0.16126 0.90024 
4.175 489.0 66.355 12.857 22.092 0.16318 0.90097 
4.200 489.0 61.745 12.809 22.615 0.16626 0.90170 
4.225 500.0 68.787 12.908 22.791 0.16869 0.90020 
4.250 500.0 68.082 12.850 23.226 0.17102 0.90108 
4.275 500.0 64.299 12.980 23.199 0.17244 0.89909 
4.300 477.0 70.817 13.342 23.056 0.17587 0.89350 
4.325 477.0 76.786 13.705 22.742 0.17796 0.88774 
4.350 468.0 70.337 13.361 23.394 0.17854 0.89320 
4.375 468.0 70.321 13.958 22.563 0.17964 0.88363 
4.400 468.0 72.802 14.150 22.460 0.18112 0.88048 
4.425 468.0 72.955 14.180 22.542 0.18210 0.87998 
4.450 468.0 73.562 14.082 23.016 0.18455 0.88159 
4.475 468.0 75.064 13.900 23.557 0.18640 0.88458 
4.500 468.0 75.071 13.704 23.928 0.18670 0.88775 
4.525 468.0 74.086 14.101 23.310 0.18701 0.88128 
4.550 468.0 72.612 14.283 22.986 0.18672 0.87827 
4.575 468.0 73.233 14.343 23.096 0.18830 0.87726 
4.600 468.0 73.646 14.004 23.740 0.18906 0.88287 
4.625 468.0 72.375 13.879 23.991 0.18936 0.88493 
4.650 468.0 70.932 14.033 23.942 0.19093 0.88241 
4.675 468.0 66.474 14.203 23.590 0.19038 0.87959 
4.700 468.0 63.655 14.136 23.872 0.19169 0.88071 
4.725 468.0 65.646 14.095 23.965 0.19188 0.88138 
4.750 468.0 62.787 14.266 23.586 0.19112 0.87854 
4.775 468.0 60.652 14.612 23.118 0.19169 0.87273 
4.800 479.0 70.361 14.663 23.071 0.19193 0.87184 
4.825 479.0 66.785 14.598 23.224 0.19235 0.87296 
4.850 479.0 61.922 14.200 24.191 0.19490 0.87965 
4.875 491.0 74.528 14.456 23.779 0.19494 0.87537 
4.900 491.0 71.011 14.384 23.953 0.19539 0.87657 
4.925 491.0 67.576 14.553 23.969 0.19761 0.87372 
4.950 491.0 66.548 14.220 24.527 0.19770 0.87932 
4.975 491.0 66.685 14.286 24.480 0.19819 0.87821 
5.000 491.0 61.350 14.179 24.655 0.19814 0.88000 
5.025 491.0 62.002 14.195 24.800 0.19943 0.87974 
5.050 503.0 69.893 14.352 24.600 0.19993 0.87711 
5.075 503.0 67.620 14.349 24.896 0.20215 0.87716 
5.100 503.0 64.714 14.318 24.775 0.20084 0.87767 
5.125 503.0 61.312 14.363 24.909 0.20242 0.87694 
5.150 516.0 71.472 14.480 24.867 0.20362 0.87495 
5.175 516.0 68.991 14.549 24.932 0.20499 0.87380 
5.200 516.0 65.135 14.580 24.923 0.20533 0.87326 
5.225 516.0 64.206 14.575 25.196 0.20737 0.87335 
5.250 528.0 70.467 14.316 25.655 0.20747 0.87771 
5.275 528.0 66.823 14.660 25.207 0.20856 0.87189 
5.300 528.0 62.845 14.433 25.775 0.20992 0.87575 
5.325 528.0 59.918 14.370 25.842 0.20960 0.87680 
5.350 528.0 60.256 14.610 25.843 0.21279 0.87275 
5.375 542.0 67.517 14.389 25.975 0.21085 0.87648 
5.400 542.0 67.041 14.527 26.002 0.21290 0.87417 
5.425 542.0 61.794 14.560 25.876 0.21238 0.87360 
5.450 542.0 59.905 14.600 26.209 0.21547 0.87291 
5.475 555.0 71.783 14.694 26.087 0.21578 0.87132 
5.500 555.0 65.717 15.020 25.641 0.21663 0.86567 
5.525 555.0 62.842 14.728 26.262 0.21759 0.87073 
5.550 555.0 61.939 14.744 26.312 0.21819 0.87045 
5.575 569.0 71.583 14.829 26.443 0.22035 0.86900 
5.600 569.0 69.649 15.019 26.013 0.21954 0.86569 
5.625 569.0 61.778 15.144 26.070 0.22164 0.86350 
5.650 580.0 68.958 14.642 27.055 0.22249 0.87220 
5.675 580.0 66.899 14.894 26.724 0.22340 0.86788 
5.700 580.0 63.576 15.013 26.710 0.22492 0.86580 
5.725 592.0 68.563 15.168 26.530 0.22560 0.86308 
5.750 592.0 65.481 14.952 26.908 0.22562 0.86687 
5.775 592.0 59.727 14.897 27.086 0.22624 0.86782 
5.800 612.0 69.937 14.682 27.541 0.22673 0.87152 
5.825 612.0 63.944 14.974 27.318 0.22911 0.86648 
5.850 625.0 70.625 14.822 27.771 0.23046 0.86912 
5.875 625.0 66.082 14.944 27.585 0.23075 0.86699 
5.900 625.0 58.393 15.042 27.474 0.23125 0.86530 
5.925 643.0 67.302 15.109 27.651 0.23358 0.86411 
5.950 643.0 62.977 15.261 27.052 0.23097 0.86144 
5.975 660.0 68.918 14.940 28.033 0.23414 0.86706 
6.000 660.0 63.838 15.051 27.535 0.23186 0.86513 
6.025 660.0 56.782 15.176 27.804 0.23570 0.86294 
6.050 678.0 65.182 14.997 27.863 0.23364 0.86607 
6.075 693.0 72.151 15.474 27.463 0.23716 0.85763 
6.100 693.0 64.022 15.286 28.015 0.23891 0.86098 
6.125 693.0 59.051 15.423 27.574 0.23734 0.85855 
6.150 712.0 65.411 15.316 27.894 0.23837 0.86046 
6.175 712.0 60.778 15.202 28.233 0.23940 0.86249 
6.200 732.0 68.279 15.315 28.485 0.24298 0.86048 
6.225 732.0 64.295 15.828 27.819 0.24492 0.85122 
6.250 732.0 57.924 15.744 27.482 0.24103 0.85275 
6.275 755.0 67.820 15.989 27.252 0.24251 0.84825 
6.300 755.0 62.959 15.908 27.055 0.23980 0.84974 
6.325 772.0 67.948 15.689 27.819 0.24298 0.85376 
6.350 772.0 62.273 15.924 27.372 0.24260 0.84946 
6.375 780.0 59.981 15.280 28.427 0.24204 0.86110 
6.400 780.0 52.497 15.924 27.115 0.24050 0.84944 
6.425 780.0 47.060 15.787 27.231 0.23960 0.85196 
6.450 780.0 40.622 15.436 28.480 0.24468 0.85831 
6.475 780.0 36.822 16.616 26.059 0.24075 0.83646 
6.500 780.0 31.722 16.481 25.299 0.23251 0.83903 

# MINIMA:
0.600 356.0 29.315 2.572 0.248 -0.71750 -0.00183 

# MAXIMA:
6.500 3918.0 125.815 45.052 359.155 0.69977 0.99597 

# PEAKS:

# END SPECTRUM


# SPECTRUM:
5

# START TIME:
18:54:04

# END TIME:
19:04:29

# THETA ANGLE:
0.00 ø

# INCIDENCE ANGLE:
75.00 ø

# ACCUMULATION NUMBER:
1

# ELLIPSOMETRIC CONFIGURATION:
+45.00 øModulator
+45.00 øAnalyser

# INTEGRATION TIME:
500 ms

# FIRST POINT:
0.6000 eV

# LAST POINT:
6.5000 eV

# INCREMENT:
0.0250 eV

# NUMBER OF POINTS:
237

# DATA:
eV Hv S0 Psi Delta Is Ic 
0.600 1797.1 63.523 28.564 335.120 -0.35336 0.54275 
0.625 1600.2 78.219 28.069 331.729 -0.39330 0.55719 
0.650 1498.6 80.645 25.278 325.860 -0.43340 0.63533 
0.675 1498.6 78.008 24.042 323.240 -0.44533 0.66804 
0.700 1301.8 79.039 23.608 321.488 -0.45700 0.67924 
0.725 1200.2 77.185 21.574 317.543 -0.46164 0.72960 
0.750 1098.6 65.568 19.173 313.005 -0.45371 0.78427 
0.775 997.0 64.730 17.810 312.428 -0.42988 0.81291 
0.800 698.5 66.967 15.913 312.188 -0.39072 0.84966 
0.825 997.0 77.811 12.270 304.384 -0.34276 0.90967 
0.850 997.0 73.933 10.058 305.937 -0.27847 0.93899 
0.875 698.5 66.669 5.917 286.009 -0.19711 0.97875 
0.900 800.1 62.568 3.488 295.265 -0.10983 0.99260 
0.925 901.7 64.661 3.306 353.040 -0.01396 0.99335 
0.950 1003.3 74.558 0.000 180.000 0.08320 1.00120 
0.975 704.9 63.000 5.825 61.052 0.17671 0.97940 
1.000 1003.3 71.035 10.039 48.514 0.25717 0.93923 
1.025 1003.3 74.524 12.238 52.965 0.33073 0.91014 
1.050 635.0 62.865 14.584 52.987 0.38915 0.87320 
1.075 1035.1 77.377 16.804 52.318 0.43805 0.83284 
1.100 939.8 62.033 19.601 49.201 0.47847 0.77492 
1.125 939.8 62.099 22.039 46.918 0.50807 0.71841 
1.150 939.8 72.687 24.270 45.660 0.53599 0.66210 
1.175 939.8 73.218 26.972 44.026 0.56186 0.58857 
1.200 1041.4 64.546 29.429 43.081 0.58460 0.51716 
1.225 844.6 79.753 31.957 40.295 0.58085 0.43972 
1.250 565.2 62.530 34.449 36.644 0.55681 0.36003 
1.275 965.2 68.369 36.774 32.579 0.51642 0.28321 
1.300 965.2 67.759 39.368 27.224 0.44866 0.19532 
1.325 1263.7 76.054 41.753 20.889 0.35426 0.11308 
1.350 863.6 76.720 43.939 11.965 0.20717 0.03702 
1.375 1365.3 80.287 44.959 2.703 0.04716 0.00142 
1.400 1168.4 87.286 44.699 351.460 -0.14849 0.01052 
1.425 2870.2 63.131 43.092 342.656 -0.29744 0.06655 
1.450 3968.8 40.214 40.850 334.639 -0.42383 0.14437 
1.475 780.0 154.305 37.067 328.372 -0.50443 0.27339 
1.500 520.0 66.025 34.717 322.641 -0.56813 0.35130 
1.525 616.0 75.212 31.947 318.651 -0.59325 0.44004 
1.550 553.0 75.823 29.412 314.841 -0.60666 0.51768 
1.575 580.0 65.836 26.820 311.481 -0.60331 0.59286 
1.600 580.0 71.800 24.161 308.196 -0.58699 0.66493 
1.625 519.0 71.748 21.629 304.925 -0.56187 0.72827 
1.650 537.0 70.709 18.483 300.893 -0.51602 0.79900 
1.675 521.0 68.462 15.638 298.886 -0.45456 0.85468 
1.700 508.0 67.469 12.378 295.654 -0.37748 0.90810 
1.725 508.0 76.578 9.586 300.716 -0.28234 0.94453 
1.750 493.0 67.256 6.036 301.936 -0.17747 0.97789 
1.775 493.0 78.701 3.165 325.005 -0.06323 0.99390 
1.800 470.0 69.657 3.450 27.595 0.05565 0.99276 
1.825 470.0 75.053 5.855 54.147 0.16449 0.97919 
1.850 460.0 71.839 9.197 57.171 0.26516 0.94891 
1.875 460.0 76.031 12.128 57.864 0.34786 0.91172 
1.900 448.0 69.375 14.945 56.657 0.41631 0.86698 
1.925 448.0 76.710 17.482 53.916 0.46313 0.81950 
1.950 438.0 69.295 20.010 50.431 0.49571 0.76581 
1.975 438.0 76.475 22.209 47.116 0.51283 0.71426 
2.000 430.0 70.237 24.226 43.854 0.51851 0.66325 
2.025 430.0 67.510 26.162 40.131 0.51013 0.61120 
2.050 430.0 66.757 27.996 36.311 0.49088 0.55932 
2.075 430.0 75.529 29.725 32.061 0.45713 0.50830 
2.100 430.0 75.394 31.383 27.485 0.41036 0.45763 
2.125 430.0 73.775 32.771 22.578 0.34949 0.41403 
2.150 430.0 73.445 33.947 16.932 0.26983 0.37631 
2.175 430.0 71.457 34.680 10.605 0.17223 0.35251 
2.200 430.0 73.049 34.861 4.071 0.06659 0.34659 
2.225 430.0 74.277 34.412 357.364 -0.04289 0.36125 
2.250 422.0 66.494 33.358 351.149 -0.14134 0.39530 
2.275 422.0 71.945 31.909 345.758 -0.22077 0.44124 
2.300 422.0 76.291 30.029 341.029 -0.28170 0.49913 
2.325 414.0 69.481 27.868 337.025 -0.32259 0.56300 
2.350 414.0 73.493 25.719 334.089 -0.34168 0.62335 
2.375 414.0 78.885 23.619 332.046 -0.34415 0.67897 
2.400 405.0 68.971 21.448 330.787 -0.33220 0.73260 
2.425 405.0 75.580 19.257 330.531 -0.30635 0.78245 
2.450 395.0 71.107 17.351 331.553 -0.27120 0.82211 
2.475 395.0 78.194 15.556 333.808 -0.22806 0.85616 
2.500 371.0 69.894 14.002 338.272 -0.17382 0.88292 
2.525 371.0 76.596 12.622 343.863 -0.11853 0.90449 
2.550 371.0 71.831 11.814 351.185 -0.06142 0.91616 
2.575 363.0 71.134 11.755 359.237 -0.00531 0.91699 
2.600 363.0 62.314 12.230 6.912 0.04983 0.91026 
2.625 363.0 78.221 12.663 13.818 0.10217 0.90389 
2.650 354.0 71.861 13.648 18.485 0.14539 0.88865 
2.675 354.0 62.067 14.844 21.404 0.18075 0.86873 
2.700 363.0 67.999 15.921 23.625 0.21143 0.84950 
2.725 363.0 62.914 17.098 24.713 0.23497 0.82712 
2.750 363.0 63.617 18.432 24.538 0.24914 0.80006 
2.775 372.0 67.712 19.320 24.156 0.25552 0.78109 
2.800 372.0 66.340 20.358 23.089 0.25581 0.75796 
2.825 372.0 67.191 21.183 21.870 0.25102 0.73886 
2.850 372.0 62.750 22.043 20.030 0.23830 0.71830 
2.875 372.0 60.363 22.696 18.181 0.22213 0.70226 
2.900 380.0 68.951 23.128 16.364 0.20354 0.69143 
2.925 380.0 66.618 23.433 14.382 0.18126 0.68370 
2.950 380.0 66.087 23.719 12.132 0.15479 0.67638 
2.975 380.0 62.886 23.778 10.011 0.12829 0.67486 
3.000 380.0 63.053 23.724 7.965 0.10208 0.67627 
3.025 380.0 60.252 23.596 6.092 0.07786 0.67956 
3.050 388.0 67.762 23.223 4.426 0.05593 0.68905 
3.075 388.0 66.787 22.886 2.938 0.03672 0.69751 
3.100 377.0 70.523 22.254 1.704 0.02085 0.71315 
3.125 377.0 70.148 21.818 0.780 0.00940 0.72374 
3.150 377.0 67.295 21.194 0.202 0.00238 0.73860 
3.175 377.0 66.096 20.645 359.898 -0.00117 0.75139 
3.200 377.0 62.906 20.080 359.965 -0.00040 0.76424 
3.225 377.0 62.985 19.658 0.349 0.00385 0.77367 
3.250 377.0 61.228 19.189 1.040 0.01127 0.78393 
3.275 387.0 71.467 18.685 2.093 0.02217 0.79473 
3.300 387.0 67.318 18.464 3.312 0.03471 0.79939 
3.325 387.0 62.829 18.225 4.857 0.05030 0.80437 
3.350 387.0 59.176 17.974 6.567 0.06714 0.80956 
3.375 395.0 69.825 18.016 8.001 0.08188 0.80868 
3.400 395.0 70.068 18.097 9.349 0.09593 0.80701 
3.425 395.0 69.268 18.285 10.427 0.10783 0.80312 
3.450 395.0 67.460 18.536 11.346 0.11860 0.79788 
3.475 395.0 69.023 18.772 12.033 0.12704 0.79289 
3.500 395.0 64.433 18.911 12.642 0.13420 0.78992 
3.525 395.0 61.535 19.179 12.982 0.13941 0.78414 
3.550 395.0 59.285 19.374 13.230 0.14325 0.77991 
3.575 395.0 59.587 19.600 13.320 0.14561 0.77496 
3.600 405.0 67.593 19.849 13.313 0.14709 0.76942 
3.625 405.0 66.342 20.019 13.308 0.14808 0.76561 
3.650 405.0 64.684 20.192 13.166 0.14758 0.76173 
3.675 405.0 63.606 20.276 13.035 0.14664 0.75982 
3.700 405.0 61.870 20.388 12.825 0.14498 0.75726 
3.725 405.0 61.218 20.464 12.647 0.14343 0.75554 
3.750 405.0 57.128 20.523 12.413 0.14115 0.75418 
3.775 415.0 68.345 20.648 12.161 0.13903 0.75131 
3.800 415.0 64.415 20.646 12.003 0.13724 0.75136 
3.825 415.0 63.217 20.624 11.897 0.13592 0.75187 
3.850 415.0 57.873 20.663 11.691 0.13381 0.75095 
3.875 429.0 70.220 20.685 11.502 0.13178 0.75045 
3.900 429.0 61.109 20.651 11.450 0.13102 0.75124 
3.925 441.0 72.030 20.696 11.335 0.12996 0.75021 
3.950 441.0 64.923 20.639 11.281 0.12906 0.75151 
3.975 441.0 61.291 20.572 11.364 0.12964 0.75307 
4.000 453.0 69.223 20.665 11.308 0.12949 0.75091 
4.025 453.0 64.210 20.511 11.450 0.13030 0.75446 
4.050 453.0 61.535 20.527 11.490 0.13082 0.75409 
4.075 464.0 67.699 20.579 11.548 0.13175 0.75291 
4.100 464.0 63.995 20.506 11.718 0.13327 0.75457 
4.125 475.0 68.374 20.489 11.822 0.13435 0.75495 
4.150 475.0 66.716 20.490 11.969 0.13601 0.75493 
4.175 475.0 62.950 20.527 12.087 0.13752 0.75410 
4.200 487.0 72.202 20.481 12.268 0.13930 0.75515 
4.225 487.0 66.284 20.473 12.496 0.14180 0.75532 
4.250 487.0 65.130 20.470 12.642 0.14341 0.75541 
4.275 487.0 61.880 20.507 12.778 0.14514 0.75455 
4.300 467.0 67.965 20.679 12.960 0.14819 0.75059 
4.325 467.0 71.697 20.824 13.003 0.14952 0.74724 
4.350 467.0 74.454 21.058 12.928 0.15004 0.74179 
4.375 467.0 75.055 20.832 13.272 0.15261 0.74705 
4.400 467.0 75.652 20.952 13.274 0.15335 0.74426 
4.425 458.0 68.636 20.997 13.313 0.15406 0.74322 
4.450 458.0 69.422 21.025 13.471 0.15603 0.74255 
4.475 458.0 71.597 20.982 13.589 0.15710 0.74356 
4.500 458.0 72.281 21.089 13.605 0.15794 0.74106 
4.525 458.0 70.251 20.935 13.692 0.15799 0.74467 
4.550 458.0 68.998 21.184 13.606 0.15853 0.73883 
4.575 458.0 71.489 20.998 13.833 0.15997 0.74319 
4.600 458.0 67.332 20.963 13.943 0.16100 0.74401 
4.625 458.0 66.616 21.161 13.811 0.16073 0.73936 
4.650 458.0 68.227 21.086 13.951 0.16186 0.74112 
4.675 458.0 64.573 21.304 13.747 0.16087 0.73599 
4.700 458.0 61.539 21.208 13.920 0.16227 0.73827 
4.725 458.0 59.691 21.213 14.016 0.16339 0.73816 
4.750 471.0 72.284 21.086 14.007 0.16250 0.74113 
4.775 471.0 69.517 21.275 13.880 0.16222 0.73669 
4.800 471.0 65.871 21.259 14.012 0.16363 0.73706 
4.825 471.0 64.698 21.262 14.066 0.16427 0.73699 
4.850 471.0 62.480 21.303 14.046 0.16430 0.73603 
4.875 471.0 59.507 21.226 14.248 0.16613 0.73784 
4.900 483.0 71.735 21.274 14.205 0.16593 0.73670 
4.925 483.0 67.582 21.523 14.075 0.16601 0.73079 
4.950 483.0 65.165 21.250 14.241 0.16620 0.73729 
4.975 483.0 63.756 21.273 14.406 0.16823 0.73674 
5.000 483.0 61.335 21.422 14.314 0.16812 0.73321 
5.025 483.0 60.825 21.365 14.403 0.16877 0.73457 
5.050 495.0 67.240 21.310 14.397 0.16836 0.73586 
5.075 495.0 66.995 21.432 14.586 0.17131 0.73297 
5.100 495.0 64.541 21.495 14.596 0.17183 0.73146 
5.125 495.0 60.956 21.330 14.642 0.17130 0.73539 
5.150 510.0 74.137 21.415 14.590 0.17125 0.73336 
5.175 510.0 69.129 21.324 14.908 0.17429 0.73553 
5.200 510.0 64.365 21.369 14.867 0.17413 0.73446 
5.225 510.0 64.003 21.322 14.980 0.17510 0.73558 
5.250 522.0 72.769 21.598 14.895 0.17595 0.72903 
5.275 522.0 69.494 21.540 14.993 0.17670 0.73040 
5.300 522.0 68.467 21.455 15.117 0.17757 0.73242 
5.325 522.0 63.077 21.529 15.117 0.17806 0.73065 
5.350 522.0 60.993 21.352 15.414 0.18026 0.73488 
5.375 535.0 72.221 21.272 15.564 0.18143 0.73675 
5.400 535.0 67.395 21.554 15.320 0.18056 0.73007 
5.425 535.0 65.976 21.496 15.440 0.18155 0.73144 
5.450 535.0 62.806 21.569 15.378 0.18133 0.72971 
5.475 535.0 60.574 21.553 15.502 0.18265 0.73008 
5.500 548.0 69.663 21.515 15.457 0.18187 0.73100 
5.525 548.0 65.817 21.573 15.582 0.18370 0.72961 
5.550 548.0 64.842 21.617 15.626 0.18451 0.72857 
5.575 560.0 71.435 21.786 15.522 0.18446 0.72450 
5.600 560.0 67.381 21.782 15.529 0.18450 0.72461 
5.625 560.0 65.453 21.651 15.893 0.18781 0.72775 
5.650 560.0 60.407 21.686 15.870 0.18779 0.72690 
5.675 574.0 68.185 21.667 15.888 0.18786 0.72737 
5.700 574.0 65.424 21.804 15.987 0.18997 0.72408 
5.725 574.0 62.491 21.750 15.904 0.18863 0.72537 
5.750 589.0 69.682 21.672 16.241 0.19196 0.72725 
5.775 589.0 63.969 21.703 16.055 0.19004 0.72650 
5.800 589.0 60.127 21.765 16.275 0.19302 0.72502 
5.825 608.0 70.948 21.789 16.210 0.19243 0.72443 
5.850 608.0 65.729 21.976 16.100 0.19247 0.71993 
5.875 608.0 62.565 21.672 16.415 0.19396 0.72725 
5.900 625.0 69.106 21.848 16.367 0.19467 0.72303 
5.925 625.0 62.570 21.793 16.652 0.19756 0.72435 
5.950 638.0 67.585 21.867 16.478 0.19609 0.72256 
5.975 638.0 61.005 21.796 16.397 0.19464 0.72427 
6.000 650.0 65.241 22.101 16.263 0.19524 0.71689 
6.025 650.0 59.056 21.610 16.835 0.19833 0.72872 
6.050 670.0 68.664 21.911 16.543 0.19716 0.72149 
6.075 670.0 60.432 22.117 16.565 0.19888 0.71649 
6.100 670.0 57.528 22.010 16.837 0.20128 0.71910 
6.125 693.0 67.739 21.846 16.760 0.19920 0.72306 
6.150 693.0 61.647 22.102 17.061 0.20455 0.71687 
6.175 714.0 72.643 22.103 16.692 0.20026 0.71685 
6.200 714.0 64.543 21.906 17.026 0.20271 0.72161 
6.225 714.0 62.852 22.151 16.584 0.19935 0.71566 
6.250 729.0 64.431 22.364 16.862 0.20414 0.71045 
6.275 742.0 67.099 22.063 17.038 0.20399 0.71782 
6.300 742.0 64.306 22.191 17.072 0.20533 0.71470 
6.325 742.0 57.953 22.714 16.704 0.20475 0.70181 
6.350 778.0 75.520 22.259 16.817 0.20285 0.71303 
6.375 778.0 68.605 22.215 16.523 0.19909 0.71410 
6.400 778.0 60.331 22.657 16.137 0.19761 0.70321 
6.425 780.0 54.963 22.803 16.013 0.19711 0.69960 
6.450 780.0 47.844 22.221 16.322 0.19678 0.71395 
6.475 780.0 41.788 22.820 16.439 0.20233 0.69916 
6.500 780.0 36.190 22.752 16.917 0.20756 0.70085 

# MINIMA:
0.600 354.0 36.190 0.000 0.202 -0.60666 0.00142 

# MAXIMA:
6.500 3968.8 154.305 44.959 359.965 0.58460 1.00120 

# PEAKS:

# END SPECTRUM

