PE UV                   SPECTRUM    ASCII       PEDS        1.60        
  -1
S19_03.SP
12/04/05
07:59:36.00
12/04/05
08:10:05.00


190.000000
1









4444

SCAN
1
1


0.0
1920.0
2.00
MANUAL



UV/VIS




































#HDR
-1
-1
#GR
NM
%R
0.00002384185791015625
0.0
1000.000000
1.000000
811
8
96.872000
1.284000
#DATA
1000.000000	5.914000  
999.000000	 5.696000  
998.000000	 5.800000  
997.000000	 6.220000  
996.000000	 5.970000  
995.000000	 6.347000  
994.000000	 6.379000  
993.000000	 6.641000  
992.000000	 6.997000  
991.000000	 7.273000  
990.000000	 7.606000  
989.000000	 8.144000  
988.000000	 8.257000  
987.000000	 8.762000  
986.000000	 8.856000  
985.000000	 8.942000  
984.000000	 9.545000  
983.000000	 9.782000  
982.000000	 9.911000  
981.000000	 10.117000 
980.000000	 10.570000 
979.000000	 11.092000 
978.000000	 11.487000 
977.000000	 11.822000 
976.000000	 12.341000 
975.000000	 12.592000 
974.000000	 12.832000 
973.000000	 13.354000 
972.000000	 14.100000 
971.000000	 14.075000 
970.000000	 14.552000 
969.000000	 15.068000 
968.000000	 15.388000 
967.000000	 15.926000 
966.000000	 16.005000 
965.000000	 16.452000 
964.000000	 17.079000 
963.000000	 17.468000 
962.000000	 18.288000 
961.000000	 19.016000 
960.000000	 19.018000 
959.000000	 19.527000 
958.000000	 20.131000 
957.000000	 20.383000 
956.000000	 20.600000 
955.000000	 21.345000 
954.000000	 21.922000 
953.000000	 22.446000 
952.000000	 23.029000 
951.000000	 23.525000 
950.000000	 23.955000 
949.000000	 24.462000 
948.000000	 25.102000 
947.000000	 25.358000 
946.000000	 26.021000 
945.000000	 26.708000 
944.000000	 27.387000 
943.000000	 27.830000 
942.000000	 28.400000 
941.000000	 28.923000 
940.000000	 29.247000 
939.000000	 29.974000 
938.000000	 30.586000 
937.000000	 31.060000 
936.000000	 31.720000 
935.000000	 32.481000 
934.000000	 33.006000 
933.000000	 33.430000 
932.000000	 34.220000 
931.000000	 34.573000 
930.000000	 34.898000 
929.000000	 35.543000 
928.000000	 36.537000 
927.000000	 37.047000 
926.000000	 37.591000 
925.000000	 38.371000 
924.000000	 38.829000 
923.000000	 39.289000 
922.000000	 39.839000 
921.000000	 40.414000 
920.000000	 41.151000 
919.000000	 41.675000 
918.000000	 42.325000 
917.000000	 42.949000 
916.000000	 43.491000 
915.000000	 44.054000 
914.000000	 44.695000 
913.000000	 45.433000 
912.000000	 46.115000 
911.000000	 47.427000 
910.000000	 47.881000 
909.000000	 48.388000 
908.000000	 48.807000 
907.000000	 48.844000 
906.000000	 49.772000 
905.000000	 50.319000 
904.000000	 51.062000 
903.000000	 51.331000 
902.000000	 52.018000 
901.000000	 52.793000 
900.000000	 53.693000 
899.000000	 54.464000 
898.000000	 55.035999 
897.000000	 55.362000 
896.000000	 55.823000 
895.000000	 56.682000 
894.000000	 57.312000 
893.000000	 57.794000 
892.000000	 58.275000 
891.000000	 58.853999 
890.000000	 59.505000 
889.000000	 60.266000 
888.000000	 60.307000 
887.000000	 60.726000 
886.000000	 61.607000 
885.000000	 62.329000 
884.000000	 63.034000 
883.000000	 63.589000 
882.000000	 64.437999 
881.000000	 65.074000 
880.000000	 65.712999 
879.000000	 66.269000 
878.000000	 67.054999 
877.000000	 68.054999 
876.000000	 67.534000 
875.000000	 68.069000 
874.000000	 69.176999 
873.000000	 69.450000 
872.000000	 69.056000 
871.000000	 70.550000 
870.000000	 71.184000 
869.000000	 71.137000 
868.000000	 71.700000 
867.000000	 72.767000 
866.000000	 73.261000 
865.000000	 73.137000 
864.000000	 74.146999 
863.000000	 75.319999 
862.000000	 75.688999 
861.000000	 76.227000 
860.000000	 76.315999 
859.000000	 76.759000 
858.000000	 77.266000 
857.000000	 78.092000 
856.000000	 78.550000 
855.000000	 78.384000 
854.000000	 79.013000 
853.000000	 79.637999 
852.000000	 79.791000 
851.000000	 80.101000 
850.000000	 81.002000 
849.000000	 81.914000 
848.000000	 82.145000 
847.000000	 82.942000 
846.000000	 83.206999 
845.000000	 83.298000 
844.000000	 83.999000 
843.000000	 84.674000 
842.000000	 84.650000 
841.000000	 84.945000 
840.000000	 85.091000 
839.000000	 85.523000 
838.000000	 86.215000 
837.000000	 86.827000 
836.000000	 86.438000 
835.000000	 86.968000 
834.000000	 87.404000 
833.000000	 87.813000 
832.000000	 88.413000 
831.000000	 88.747000 
830.000000	 89.108000 
829.000000	 89.584000 
828.000000	 90.291000 
827.000000	 90.281000 
826.000000	 90.727999 
825.000000	 90.893000 
824.000000	 90.798000 
823.000000	 91.498000 
822.000000	 91.735999 
821.000000	 92.227999 
820.000000	 92.343000 
819.000000	 92.715999 
818.000000	 92.662000 
817.000000	 92.852999 
816.000000	 93.230000 
815.000000	 93.395000 
814.000000	 93.774999 
813.000000	 94.438999 
812.000000	 94.816999 
811.000000	 94.496000 
810.000000	 94.288000 
809.000000	 94.223000 
808.000000	 94.666000 
807.000000	 95.172000 
806.000000	 95.355000 
805.000000	 95.628999 
804.000000	 95.110000 
803.000000	 95.033000 
802.000000	 95.555000 
801.000000	 95.679000 
800.000000	 95.989999 
799.000000	 95.718999 
798.000000	 96.080000 
797.000000	 96.108999 
796.000000	 95.759000 
795.000000	 96.310000 
794.000000	 96.422000 
793.000000	 96.730999 
792.000000	 95.882000 
791.000000	 96.523000 
790.000000	 96.759000 
789.000000	 96.654000 
788.000000	 96.872000 
787.000000	 96.741999 
786.000000	 96.792999 
785.000000	 96.643000 
784.000000	 96.714999 
783.000000	 96.636000 
782.000000	 96.688000 
781.000000	 96.480999 
780.000000	 96.335000 
779.000000	 96.496000 
778.000000	 96.259000 
777.000000	 96.194999 
776.000000	 95.986999 
775.000000	 95.906000 
774.000000	 95.904000 
773.000000	 95.860000 
772.000000	 95.560999 
771.000000	 95.334000 
770.000000	 95.233999 
769.000000	 95.209000 
768.000000	 94.849000 
767.000000	 94.557000 
766.000000	 94.489000 
765.000000	 94.225000 
764.000000	 93.726000 
763.000000	 93.621000 
762.000000	 93.391000 
761.000000	 93.066000 
760.000000	 92.832000 
759.000000	 92.514000 
758.000000	 92.040000 
757.000000	 91.747999 
756.000000	 91.356000 
755.000000	 91.380000 
754.000000	 90.884000 
753.000000	 90.720000 
752.000000	 90.425000 
751.000000	 89.937000 
750.000000	 89.480000 
749.000000	 89.224000 
748.000000	 88.704000 
747.000000	 88.508000 
746.000000	 87.929999 
745.000000	 87.280999 
744.000000	 86.771000 
743.000000	 86.334999 
742.000000	 85.980000 
741.000000	 85.409000 
740.000000	 84.846999 
739.000000	 84.301000 
738.000000	 83.693000 
737.000000	 83.116999 
736.000000	 82.611999 
735.000000	 82.220000 
734.000000	 81.548000 
733.000000	 80.861999 
732.000000	 80.294000 
731.000000	 79.730999 
730.000000	 78.970000 
729.000000	 78.288000 
728.000000	 77.703999 
727.000000	 76.868000 
726.000000	 76.176999 
725.000000	 75.464000 
724.000000	 74.782000 
723.000000	 73.964000 
722.000000	 73.216000 
721.000000	 72.512000 
720.000000	 71.614999 
719.000000	 70.670999 
718.000000	 70.135000 
717.000000	 69.292000 
716.000000	 68.359000 
715.000000	 67.435999 
714.000000	 66.742999 
713.000000	 65.964999 
712.000000	 65.101000 
711.000000	 64.220999 
710.000000	 63.343000 
709.000000	 62.343000 
708.000000	 61.503000 
707.000000	 60.644000 
706.000000	 59.480000 
705.000000	 58.500000 
704.000000	 57.920000 
703.000000	 56.686000 
702.000000	 55.596999 
701.000000	 54.645999 
700.000000	 53.744000 
699.000000	 52.678000 
698.000000	 51.718000 
697.000000	 50.749999 
696.000000	 49.726000 
695.000000	 48.506000 
694.000000	 47.488000 
693.000000	 46.498000 
692.000000	 45.521000 
691.000000	 44.396000 
690.000000	 43.485000 
689.000000	 42.391000 
688.000000	 41.332000 
687.000000	 40.171000 
686.000000	 39.062000 
685.000000	 37.913000 
684.000000	 36.835000 
683.000000	 35.889000 
682.000000	 34.808000 
681.000000	 33.665000 
680.000000	 32.573000 
679.000000	 31.524000 
678.000000	 30.386000 
677.000000	 29.376000 
676.000000	 28.254000 
675.000000	 27.159000 
674.000000	 26.205000 
673.000000	 25.166000 
672.000000	 24.162000 
671.000000	 23.093000 
670.000000	 21.946000 
669.000000	 20.968000 
668.000000	 20.207000 
667.000000	 19.247000 
666.000000	 18.142000 
665.000000	 17.148000 
664.000000	 16.227000 
663.000000	 15.169000 
662.000000	 14.338000 
661.000000	 13.542000 
660.000000	 12.625000 
659.000000	 12.006000 
658.000000	 11.185000 
657.000000	 10.344000 
656.000000	 9.361000  
655.000000	 8.718000  
654.000000	 8.148000  
653.000000	 7.553000  
652.000000	 6.575000  
651.000000	 6.106000  
650.000000	 5.662000  
649.000000	 5.090000  
648.000000	 4.405000  
647.000000	 3.910000  
646.000000	 3.521000  
645.000000	 3.219000  
644.000000	 2.779000  
643.000000	 2.524000  
642.000000	 2.149000  
641.000000	 1.916000  
640.000000	 1.808000  
639.000000	 1.527000  
638.000000	 1.311000  
637.000000	 1.284000  
636.000000	 1.326000  
635.000000	 1.357000  
634.000000	 1.411000  
633.000000	 1.520000  
632.000000	 1.676000  
631.000000	 1.770000  
630.000000	 1.974000  
629.000000	 2.224000  
628.000000	 2.506000  
627.000000	 2.858000  
626.000000	 3.254000  
625.000000	 3.664000  
624.000000	 4.109999  
623.000000	 4.585000  
622.000000	 5.024000  
621.000000	 5.569000  
620.000000	 6.181000  
619.000000	 6.857000  
618.000000	 7.595000  
617.000000	 8.270000  
616.000000	 9.054000  
615.000000	 9.843000  
614.000000	 10.583000 
613.000000	 11.421000 
612.000000	 12.293000 
611.000000	 13.188000 
610.000000	 14.113000 
609.000000	 15.076000 
608.000000	 16.024000 
607.000000	 16.901000 
606.000000	 17.956000 
605.000000	 18.860000 
604.000000	 19.793000 
603.000000	 20.949000 
602.000000	 21.954000 
601.000000	 23.112000 
600.000000	 24.246000 
599.000000	 25.172000 
598.000000	 26.311000 
597.000000	 27.381000 
596.000000	 28.488000 
595.000000	 29.575000 
594.000000	 30.695000 
593.000000	 31.847000 
592.000000	 32.928000 
591.000000	 34.117000 
590.000000	 35.166000 
589.000000	 36.242000 
588.000000	 37.445000 
587.000000	 38.584000 
586.000000	 39.632000 
585.000000	 40.671000 
584.000000	 41.702000 
583.000000	 42.848000 
582.000000	 43.966000 
581.000000	 45.004000 
580.000000	 46.048000 
579.000000	 46.886000 
578.000000	 47.871000 
577.000000	 48.869000 
576.000000	 49.862000 
575.000000	 50.807000 
574.000000	 51.663000 
573.000000	 52.581000 
572.000000	 53.337999 
571.000000	 54.437000 
570.000000	 55.206999 
569.000000	 55.971000 
568.000000	 56.855999 
567.000000	 57.477000 
566.000000	 58.288000 
565.000000	 59.041000 
564.000000	 59.658000 
563.000000	 60.244000 
562.000000	 60.840000 
561.000000	 61.467000 
560.000000	 62.073000 
559.000000	 62.614000 
558.000000	 63.073000 
557.000000	 63.590000 
556.000000	 64.168000 
555.000000	 64.458000 
554.000000	 64.739999 
553.000000	 65.215999 
552.000000	 65.590000 
551.000000	 65.900000 
550.000000	 66.113999 
549.000000	 66.380000 
548.000000	 66.679000 
547.000000	 66.873000 
546.000000	 66.999000 
545.000000	 67.148000 
544.000000	 67.254000 
543.000000	 67.295000 
542.000000	 67.369999 
541.000000	 67.324000 
540.000000	 67.304000 
539.000000	 67.262999 
538.000000	 67.125999 
537.000000	 67.009000 
536.000000	 66.856000 
535.000000	 66.480999 
534.000000	 66.194000 
533.000000	 65.996000 
532.000000	 65.714000 
531.000000	 65.383000 
530.000000	 64.941000 
529.000000	 64.613000 
528.000000	 64.078000 
527.000000	 63.599000 
526.000000	 63.022000 
525.000000	 62.507000 
524.000000	 61.940000 
523.000000	 61.300000 
522.000000	 60.669000 
521.000000	 60.123000 
520.000000	 59.384000 
519.000000	 58.377000 
518.000000	 57.660000 
517.000000	 56.869000 
516.000000	 55.866000 
515.000000	 55.236000 
514.000000	 54.286000 
513.000000	 53.366000 
512.000000	 52.471999 
511.000000	 51.471000 
510.000000	 50.531000 
509.000000	 49.392000 
508.000000	 48.310000 
507.000000	 47.221000 
506.000000	 46.126000 
505.000000	 45.042000 
504.000000	 44.058000 
503.000000	 42.941000 
502.000000	 41.763000 
501.000000	 40.558000 
500.000000	 39.436000 
499.000000	 38.176000 
498.000000	 36.974000 
497.000000	 35.762000 
496.000000	 34.553000 
495.000000	 33.456000 
494.000000	 32.284000 
493.000000	 31.070000 
492.000000	 29.924000 
491.000000	 28.627000 
490.000000	 27.429000 
489.000000	 26.188000 
488.000000	 25.098000 
487.000000	 24.165000 
486.000000	 23.160000 
485.000000	 22.119000 
484.000000	 21.145000 
483.000000	 19.998000 
482.000000	 19.020000 
481.000000	 18.119000 
480.000000	 17.176000 
479.000000	 16.381000 
478.000000	 15.672000 
477.000000	 15.028000 
476.000000	 14.438000 
475.000000	 13.847000 
474.000000	 13.252000 
473.000000	 12.688000 
472.000000	 12.141000 
471.000000	 11.776000 
470.000000	 11.408000 
469.000000	 11.169000 
468.000000	 10.913000 
467.000000	 10.817000 
466.000000	 10.575000 
465.000000	 10.372000 
464.000000	 10.377000 
463.000000	 10.474000 
462.000000	 10.504000 
461.000000	 10.767000 
460.000000	 11.113000 
459.000000	 11.341000 
458.000000	 11.571000 
457.000000	 11.973000 
456.000000	 12.512000 
455.000000	 12.742000 
454.000000	 13.166000 
453.000000	 13.762000 
452.000000	 14.419000 
451.000000	 15.003000 
450.000000	 15.683000 
449.000000	 16.280000 
448.000000	 16.870000 
447.000000	 17.447000 
446.000000	 18.122000 
445.000000	 18.912000 
444.000000	 19.714000 
443.000000	 20.314000 
442.000000	 21.198000 
441.000000	 21.910000 
440.000000	 22.668000 
439.000000	 23.628000 
438.000000	 24.380000 
437.000000	 24.752000 
436.000000	 25.586000 
435.000000	 26.370000 
434.000000	 27.007000 
433.000000	 27.829000 
432.000000	 28.740000 
431.000000	 28.764000 
430.000000	 29.250000 
429.000000	 29.918000 
428.000000	 30.559000 
427.000000	 30.962000 
426.000000	 31.426000 
425.000000	 32.114000 
424.000000	 32.749000 
423.000000	 32.724000 
422.000000	 33.153000 
421.000000	 33.508000 
420.000000	 33.851000 
419.000000	 33.897000 
418.000000	 34.105999 
417.000000	 34.357000 
416.000000	 34.520000 
415.000000	 34.777000 
414.000000	 35.077000 
413.000000	 34.912000 
412.000000	 34.769000 
411.000000	 34.742000 
410.000000	 34.555000 
409.000000	 34.318000 
408.000000	 34.198000 
407.000000	 33.906000 
406.000000	 33.651000 
405.000000	 33.535000 
404.000000	 33.364000 
403.000000	 32.858000 
402.000000	 32.346000 
401.000000	 32.009000 
400.000000	 32.403000 
399.000000	 31.529000 
398.000000	 31.168000 
397.000000	 30.388000 
396.000000	 30.299000 
395.000000	 29.270000 
394.000000	 28.823000 
393.000000	 28.183000 
392.000000	 26.965000 
391.000000	 26.839000 
390.000000	 26.744000 
389.000000	 25.849000 
388.000000	 25.182000 
387.000000	 24.295000 
386.000000	 23.691000 
385.000000	 22.812000 
384.000000	 22.237000 
383.000000	 21.861000 
382.000000	 21.058000 
381.000000	 20.163000 
380.000000	 19.512000 
379.000000	 18.973000 
378.000000	 18.193000 
377.000000	 17.781000 
376.000000	 17.443000 
375.000000	 17.268000 
374.000000	 16.776000 
373.000000	 16.464000 
372.000000	 16.607000 
371.000000	 16.193000 
370.000000	 16.055000 
369.000000	 15.706000 
368.000000	 15.282000 
367.000000	 15.071000 
366.000000	 15.379000 
365.000000	 15.382000 
364.000000	 15.452000 
363.000000	 15.576000 
362.000000	 15.586000 
361.000000	 15.628000 
360.000000	 15.716000 
359.000000	 15.826000 
358.000000	 16.120000 
357.000000	 16.087000 
356.000000	 17.156000 
355.000000	 17.552000 
354.000000	 17.759000 
353.000000	 17.885000 
352.000000	 18.745000 
351.000000	 18.745000 
350.000000	 18.631000 
349.000000	 19.007000 
348.000000	 19.543000 
347.000000	 19.023000 
346.000000	 19.768000 
345.000000	 19.684000 
344.000000	 20.460000 
343.000000	 20.302000 
342.000000	 20.716000 
341.000000	 21.390000 
340.000000	 20.506000 
339.000000	 21.475000 
338.000000	 21.840000 
337.000000	 21.109000 
336.000000	 21.764000 
335.000000	 22.037000 
334.000000	 21.821000 
333.000000	 21.678000 
332.000000	 21.392000 
331.000000	 21.371000 
330.000000	 21.364000 
329.000000	 22.043000 
328.000000	 23.397000 
327.000000	 22.006000 
326.000000	 21.316000 
325.000000	 21.304000 
324.000000	 21.372000 
323.000000	 21.331000 
322.000000	 21.050000 
321.000000	 20.572000 
320.000000	 20.391000 
319.000000	 20.620000 
318.000000	 20.562000 
317.000000	 20.427000 
316.000000	 20.299000 
315.000000	 20.070000 
314.000000	 19.892000 
313.000000	 19.631000 
312.000000	 19.477000 
311.000000	 19.274000 
310.000000	 19.218000 
309.000000	 19.171000 
308.000000	 19.026000 
307.000000	 18.760000 
306.000000	 18.756000 
305.000000	 18.275000 
304.000000	 17.963000 
303.000000	 17.263000 
302.000000	 17.506000 
301.000000	 17.521000 
300.000000	 17.699000 
299.000000	 17.156000 
298.000000	 17.132000 
297.000000	 16.945000 
296.000000	 16.694000 
295.000000	 16.795000 
294.000000	 16.145000 
293.000000	 16.062000 
292.000000	 15.994000 
291.000000	 16.031000 
290.000000	 16.013000 
289.000000	 15.723000 
288.000000	 15.754000 
287.000000	 15.598000 
286.000000	 15.161000 
285.000000	 14.787000 
284.000000	 15.026000 
283.000000	 15.487000 
282.000000	 15.481000 
281.000000	 15.358000 
280.000000	 15.281000 
279.000000	 15.287000 
278.000000	 15.187000 
277.000000	 15.025000 
276.000000	 14.851000 
275.000000	 14.949000 
274.000000	 14.978000 
273.000000	 14.998000 
272.000000	 15.450000 
271.000000	 15.281000 
270.000000	 15.384000 
269.000000	 15.186000 
268.000000	 15.157000 
267.000000	 15.022000 
266.000000	 15.381000 
265.000000	 15.510000 
264.000000	 15.597000 
263.000000	 15.538000 
262.000000	 15.701000 
261.000000	 15.961000 
260.000000	 15.853000 
259.000000	 15.490000 
258.000000	 15.655000 
257.000000	 15.899000 
256.000000	 16.162000 
255.000000	 16.020000 
254.000000	 16.244000 
253.000000	 16.077000 
252.000000	 16.055000 
251.000000	 16.175000 
250.000000	 16.147000 
249.000000	 16.393000 
248.000000	 16.408000 
247.000000	 16.469000 
246.000000	 16.616000 
245.000000	 16.816000 
244.000000	 16.557000 
243.000000	 16.803000 
242.000000	 16.974000 
241.000000	 17.174000 
240.000000	 17.309000 
239.000000	 17.495000 
238.000000	 17.549000 
237.000000	 17.959000 
236.000000	 18.028000 
235.000000	 17.597000 
234.000000	 17.269000 
233.000000	 16.779000 
232.000000	 16.999000 
231.000000	 16.943000 
230.000000	 17.104000 
229.000000	 17.281000 
228.000000	 17.097000 
227.000000	 17.506000 
226.000000	 16.833000 
225.000000	 17.190000 
224.000000	 16.583000 
223.000000	 16.602000 
222.000000	 17.032000 
221.000000	 17.760000 
220.000000	 17.015000 
219.000000	 17.022000 
218.000000	 18.439000 
217.000000	 17.458000 
216.000000	 16.833000 
215.000000	 17.764000 
214.000000	 16.659000 
213.000000	 16.594000 
212.000000	 17.957000 
211.000000	 18.452000 
210.000000	 17.823000 
209.000000	 17.724000 
208.000000	 17.207000 
207.000000	 16.441000 
206.000000	 15.187000 
205.000000	 16.382000 
204.000000	 16.848000 
203.000000	 19.701000 
202.000000	 22.734000 
201.000000	 26.536000 
200.000000	 21.541000 
199.000000	 17.834000 
198.000000	 14.705000 
197.000000	 16.942000 
196.000000	 24.577000 
195.000000	 24.807000 
194.000000	 26.180000 
193.000000	 20.722000 
192.000000	 15.332000 
191.000000	 23.149000 
190.000000	 23.195000 

