## SPECTRUM TYPE:
Spectroscopic

## DATE:
1/30/2012

## COMMENTS:

## NUMBER OF SPECTRUM:
5

## ELLIPSOMETRIC CONFIGURATION:
+90.00 øModulator
+45.00 øAnalyser

## UNIT:
eV


# SPECTRUM:
1

# START TIME:
15:20:13

# END TIME:
15:31:27

# THETA ANGLE:
0.00 ø

# INCIDENCE ANGLE:
55.00 ø

# ACCUMULATION NUMBER:
1

# ELLIPSOMETRIC CONFIGURATION:
+90.00 øModulator
+45.00 øAnalyser

# INTEGRATION TIME:
500 ms

# FIRST POINT:
0.6000 eV

# LAST POINT:
6.5000 eV

# INCREMENT:
0.0250 eV

# NUMBER OF POINTS:
237

# DATA:
eV Hv S0 Psi Delta Is Ic 
0.600 1003.3 70.762 37.048 167.248 0.21228 0.93801 
0.625 901.7 79.275 36.165 166.855 0.21668 0.92786 
0.650 800.1 70.399 45.000 166.802 0.23026 0.98188 
0.675 800.1 65.534 36.827 166.110 0.23035 0.93152 
0.700 698.5 62.029 45.000 166.077 0.24101 0.97219 
0.725 698.5 71.697 37.829 165.433 0.24368 0.93769 
0.750 698.5 73.980 39.866 165.356 0.24876 0.95202 
0.775 596.9 61.671 39.095 164.895 0.25508 0.94501 
0.800 400.1 61.147 37.614 164.380 0.26035 0.93124 
0.825 596.9 72.912 39.537 164.201 0.26733 0.94478 
0.850 596.9 67.997 38.141 163.772 0.27149 0.93277 
0.875 425.5 64.141 38.580 163.514 0.27668 0.93491 
0.900 527.1 78.781 39.426 163.206 0.28348 0.93929 
0.925 628.7 80.483 37.951 162.860 0.28583 0.92680 
0.950 628.7 68.648 38.304 162.435 0.29359 0.92745 
0.975 438.2 61.985 38.817 162.182 0.29890 0.92995 
1.000 635.0 65.534 38.066 161.729 0.30438 0.92191 
1.025 635.0 67.041 39.406 161.443 0.31220 0.92999 
1.050 438.2 73.522 39.090 161.162 0.31604 0.92637 
1.075 635.0 61.207 39.775 160.875 0.32220 0.92913 
1.100 635.0 67.081 38.925 160.453 0.32708 0.92126 
1.125 635.0 65.282 37.659 159.995 0.33093 0.90898 
1.150 635.0 78.168 38.077 159.729 0.33639 0.91081 
1.175 552.5 60.343 37.955 159.371 0.34171 0.90772 
1.200 654.1 66.700 38.571 159.049 0.34860 0.91047 
1.225 463.6 60.770 38.457 158.786 0.35245 0.90803 
1.250 362.0 75.963 37.621 158.405 0.35590 0.89913 
1.275 558.8 66.802 38.117 158.043 0.36317 0.90083 
1.300 558.8 72.448 38.319 157.864 0.36661 0.90121 
1.325 736.6 80.602 37.415 157.473 0.36977 0.89151 
1.350 438.2 72.713 37.454 157.144 0.37502 0.88970 
1.375 736.6 65.663 37.888 156.952 0.37950 0.89197 
1.400 539.8 68.214 38.027 156.668 0.38438 0.89116 
1.425 1238.3 69.088 38.211 156.371 0.38961 0.89055 
1.450 1835.2 61.566 37.998 156.121 0.39277 0.88723 
1.475 575.0 79.257 37.444 155.813 0.39555 0.88067 
1.500 404.0 43.013 36.777 155.485 0.39796 0.87263 
1.525 519.0 75.527 37.335 155.301 0.40298 0.87619 
1.550 468.0 70.756 37.343 154.979 0.40793 0.87398 
1.575 507.0 66.536 37.011 154.703 0.41080 0.86918 
1.600 507.0 73.785 36.848 154.406 0.41463 0.86560 
1.625 468.0 71.347 36.907 154.210 0.41783 0.86471 
1.650 468.0 63.418 37.183 154.004 0.42209 0.86557 
1.675 468.0 73.647 36.831 153.656 0.42584 0.85996 
1.700 457.0 69.252 36.735 153.444 0.42860 0.85753 
1.725 448.0 68.079 36.541 153.196 0.43143 0.85392 
1.750 448.0 75.323 36.510 152.983 0.43446 0.85203 
1.775 436.0 69.631 36.339 152.759 0.43698 0.84876 
1.800 424.0 70.747 36.506 152.541 0.44099 0.84862 
1.825 424.0 74.845 36.255 152.319 0.44307 0.84461 
1.850 416.0 70.750 36.123 152.094 0.44574 0.84162 
1.875 416.0 75.339 35.977 151.849 0.44859 0.83833 
1.900 406.0 70.306 35.887 151.620 0.45147 0.83567 
1.925 406.0 74.712 35.913 151.463 0.45390 0.83468 
1.950 398.0 69.563 35.840 151.291 0.45601 0.83262 
1.975 398.0 74.441 35.484 151.024 0.45797 0.82700 
2.000 398.0 78.536 35.704 150.885 0.46118 0.82805 
2.025 391.0 70.089 35.657 150.679 0.46389 0.82593 
2.050 391.0 67.728 35.395 150.469 0.46546 0.82164 
2.075 384.0 69.516 35.271 150.226 0.46822 0.81842 
2.100 384.0 72.048 35.162 150.053 0.47004 0.81589 
2.125 384.0 73.728 35.101 149.837 0.47276 0.81349 
2.150 384.0 75.022 35.047 149.654 0.47504 0.81143 
2.175 384.0 76.311 35.010 149.468 0.47744 0.80950 
2.200 384.0 76.763 34.917 149.260 0.47981 0.80681 
2.225 384.0 78.127 34.839 149.022 0.48267 0.80400 
2.250 377.0 69.402 34.711 148.827 0.48460 0.80102 
2.275 377.0 69.761 34.530 148.527 0.48761 0.79655 
2.300 377.0 69.887 34.454 148.292 0.49038 0.79374 
2.325 377.0 70.019 34.389 148.089 0.49275 0.79131 
2.350 377.0 70.305 34.236 147.869 0.49475 0.78775 
2.375 377.0 70.099 34.085 147.669 0.49646 0.78438 
2.400 377.0 70.279 33.906 147.505 0.49744 0.78099 
2.425 377.0 72.194 33.698 147.397 0.49742 0.77771 
2.450 369.0 68.961 33.485 147.307 0.49710 0.77450 
2.475 369.0 67.565 33.276 147.320 0.49535 0.77220 
2.500 355.0 72.026 32.851 147.550 0.48903 0.76912 
2.525 355.0 71.751 32.658 147.732 0.48509 0.76830 
2.550 355.0 70.313 32.528 147.895 0.48190 0.76806 
2.575 355.0 74.149 32.422 148.103 0.47828 0.76848 
2.600 355.0 68.874 32.588 148.253 0.47755 0.77180 
2.625 347.0 69.254 32.451 148.353 0.47515 0.77091 
2.650 347.0 71.292 32.331 148.420 0.47331 0.76996 
2.675 347.0 62.136 32.504 148.470 0.47398 0.77256 
2.700 356.0 67.916 32.407 148.452 0.47347 0.77118 
2.725 356.0 63.458 32.635 148.571 0.47362 0.77503 
2.750 356.0 65.579 32.519 148.460 0.47424 0.77266 
2.775 365.0 68.286 32.391 148.408 0.47394 0.77062 
2.800 365.0 66.740 32.421 148.376 0.47460 0.77073 
2.825 365.0 65.174 32.554 148.383 0.47554 0.77247 
2.850 365.0 61.538 32.529 148.346 0.47585 0.77184 
2.875 365.0 59.366 32.478 148.264 0.47654 0.77052 
2.900 373.0 67.389 32.325 148.084 0.47777 0.76709 
2.925 373.0 65.617 32.381 148.107 0.47790 0.76798 
2.950 373.0 64.635 32.275 147.983 0.47873 0.76562 
2.975 373.0 60.576 32.238 147.963 0.47869 0.76497 
3.000 382.0 69.340 32.230 147.871 0.47986 0.76410 
3.025 382.0 65.667 32.313 147.889 0.48028 0.76531 
3.050 382.0 62.255 32.236 147.859 0.48007 0.76408 
3.075 382.0 58.904 32.094 147.766 0.48016 0.76148 
3.100 382.0 73.880 31.943 147.680 0.48007 0.75881 
3.125 382.0 70.822 32.042 147.687 0.48079 0.76014 
3.150 382.0 66.207 31.943 147.646 0.48052 0.75853 
3.175 382.0 61.705 31.970 147.695 0.48010 0.75929 
3.200 391.0 68.928 31.755 147.655 0.47885 0.75615 
3.225 391.0 65.256 31.725 147.725 0.47767 0.75633 
3.250 391.0 61.279 31.636 147.841 0.47539 0.75612 
3.275 401.0 68.670 31.619 148.021 0.47289 0.75738 
3.300 401.0 62.216 31.506 148.215 0.46937 0.75747 
3.325 413.0 69.684 31.356 148.425 0.46534 0.75715 
3.350 413.0 64.983 31.512 148.853 0.46095 0.76272 
3.375 413.0 64.054 31.598 149.198 0.45705 0.76665 
3.400 413.0 63.436 31.580 149.499 0.45288 0.76879 
3.425 413.0 61.556 31.739 149.806 0.45000 0.77336 
3.450 413.0 59.292 31.932 150.026 0.44852 0.77768 
3.475 423.0 67.112 31.963 150.059 0.44832 0.77835 
3.500 423.0 63.937 32.123 150.167 0.44806 0.78130 
3.525 423.0 60.295 32.263 150.271 0.44768 0.78396 
3.550 434.0 69.465 32.419 150.359 0.44763 0.78667 
3.575 434.0 66.667 32.581 150.385 0.44845 0.78895 
3.600 434.0 64.026 32.688 150.395 0.44909 0.79039 
3.625 434.0 61.692 32.862 150.421 0.44997 0.79277 
3.650 434.0 59.761 33.094 150.408 0.45178 0.79553 
3.675 443.0 67.851 33.331 150.344 0.45431 0.79791 
3.700 443.0 66.330 33.452 150.203 0.45710 0.79823 
3.725 443.0 64.937 33.652 150.106 0.45981 0.79982 
3.750 443.0 63.053 33.869 149.929 0.46372 0.80091 
3.775 443.0 60.921 34.042 149.743 0.46746 0.80135 
3.800 453.0 68.218 34.180 149.464 0.47227 0.80060 
3.825 453.0 64.301 34.509 149.210 0.47796 0.80208 
3.850 453.0 60.093 34.564 148.873 0.48301 0.79985 
3.875 466.0 67.490 34.712 148.475 0.48951 0.79803 
3.900 466.0 62.252 34.856 147.992 0.49715 0.79537 
3.925 477.0 68.376 35.024 147.561 0.50420 0.79331 
3.950 477.0 64.010 35.294 147.105 0.51223 0.79193 
3.975 487.0 69.580 35.325 146.574 0.51975 0.78745 
4.000 487.0 65.427 35.422 146.065 0.52734 0.78373 
4.025 487.0 61.684 35.643 145.480 0.53673 0.78038 
4.050 497.0 67.965 35.651 144.821 0.54572 0.77422 
4.075 497.0 64.264 35.772 144.201 0.55485 0.76936 
4.100 497.0 60.602 35.937 143.609 0.56386 0.76504 
4.125 508.0 67.402 36.131 143.025 0.57287 0.76092 
4.150 508.0 64.127 36.113 142.345 0.58175 0.75391 
4.175 508.0 61.954 36.329 141.549 0.59357 0.74754 
4.200 508.0 60.463 36.365 140.797 0.60357 0.73997 
4.225 519.0 69.192 36.391 139.976 0.61429 0.73146 
4.250 519.0 67.109 36.459 139.174 0.62492 0.72332 
4.275 519.0 64.923 36.284 138.282 0.63490 0.71215 
4.300 491.0 70.426 35.600 137.255 0.64252 0.69520 
4.325 491.0 74.812 35.402 136.571 0.64923 0.68585 
4.350 483.0 69.424 35.215 135.897 0.65574 0.67661 
4.375 483.0 72.133 35.636 135.457 0.66431 0.67499 
4.400 483.0 74.465 34.662 134.729 0.66469 0.65843 
4.425 483.0 75.597 34.630 134.415 0.66800 0.65450 
4.450 483.0 75.988 34.270 133.874 0.67089 0.64502 
4.475 483.0 77.565 34.508 133.616 0.67597 0.64408 
4.500 483.0 76.845 34.321 133.378 0.67692 0.63965 
4.525 483.0 75.770 34.091 132.899 0.68008 0.63195 
4.550 483.0 75.295 34.460 132.701 0.68572 0.63279 
4.575 483.0 72.786 34.116 132.232 0.68764 0.62421 
4.600 483.0 71.426 34.001 132.006 0.68898 0.62048 
4.625 483.0 69.830 33.940 131.655 0.69217 0.61573 
4.650 483.0 67.206 33.715 131.187 0.69493 0.60809 
4.675 483.0 64.449 33.941 131.104 0.69807 0.60905 
4.700 483.0 61.312 33.499 130.547 0.69945 0.59838 
4.725 493.0 68.630 33.441 130.200 0.70246 0.59363 
4.750 493.0 65.631 33.688 130.167 0.70536 0.59538 
4.775 493.0 62.158 33.170 129.559 0.70616 0.58334 
4.800 493.0 58.926 33.171 129.185 0.70997 0.57873 
4.825 504.0 66.009 33.196 129.037 0.71174 0.57711 
4.850 504.0 62.662 33.139 128.828 0.71321 0.57401 
4.875 515.0 69.359 33.230 128.509 0.71738 0.57082 
4.900 515.0 66.060 33.079 128.152 0.71927 0.56503 
4.925 515.0 62.698 32.935 128.017 0.71898 0.56208 
4.950 526.0 69.428 33.038 127.661 0.72363 0.55849 
4.975 526.0 65.553 32.437 127.128 0.72184 0.54648 
5.000 526.0 62.511 32.367 126.773 0.72438 0.54138 
5.025 526.0 58.776 32.106 126.456 0.72421 0.53502 
5.050 542.0 68.870 32.381 126.557 0.72660 0.53877 
5.075 542.0 63.970 32.079 126.083 0.72735 0.53007 
5.100 553.0 71.076 32.175 125.869 0.73049 0.52819 
5.125 553.0 65.950 31.862 125.544 0.72959 0.52126 
5.150 553.0 60.952 31.831 125.345 0.73101 0.51845 
5.175 567.0 67.961 31.653 124.931 0.73246 0.51157 
5.200 567.0 62.729 31.755 125.022 0.73296 0.51364 
5.225 580.0 69.396 31.597 124.573 0.73492 0.50647 
5.250 580.0 64.029 31.348 124.210 0.73484 0.49958 
5.275 591.0 67.946 31.445 124.163 0.73653 0.49986 
5.300 591.0 63.397 31.287 124.001 0.73584 0.49635 
5.325 591.0 58.041 31.255 123.766 0.73746 0.49305 
5.350 609.0 67.769 30.962 123.439 0.73628 0.48620 
5.375 609.0 62.666 31.007 123.287 0.73818 0.48466 
5.400 609.0 58.730 30.922 123.278 0.73709 0.48377 
5.425 628.0 67.906 30.934 122.901 0.74042 0.47901 
5.450 628.0 63.152 30.465 122.382 0.73812 0.46809 
5.475 628.0 58.330 30.399 122.297 0.73786 0.46640 
5.500 646.0 66.124 30.319 122.266 0.73695 0.46526 
5.525 659.0 70.805 30.522 122.392 0.73885 0.46874 
5.550 659.0 64.655 30.134 122.073 0.73583 0.46110 
5.575 659.0 59.387 29.955 121.731 0.73590 0.45506 
5.600 675.0 65.567 29.759 121.706 0.73318 0.45293 
5.625 675.0 59.274 29.962 121.865 0.73495 0.45684 
5.650 695.0 66.687 29.451 121.188 0.73253 0.44342 
5.675 695.0 61.647 29.331 121.034 0.73186 0.44034 
5.700 712.0 66.552 29.340 121.121 0.73133 0.44153 
5.725 726.0 69.558 28.908 120.662 0.72802 0.43161 
5.750 726.0 63.305 28.673 120.367 0.72643 0.42564 
5.775 742.0 66.762 28.773 120.769 0.72505 0.43168 
5.800 757.0 69.100 28.420 120.106 0.72422 0.41992 
5.825 757.0 62.416 28.465 120.758 0.72012 0.42856 
5.850 777.0 66.518 28.225 119.895 0.72250 0.41538 
5.875 777.0 59.643 28.094 120.150 0.71847 0.41732 
5.900 780.0 54.732 28.200 120.843 0.71512 0.42703 
5.925 780.0 48.764 27.782 120.575 0.71008 0.41952 
5.950 780.0 43.164 27.734 119.983 0.71357 0.41170 
5.975 780.0 37.770 27.657 120.781 0.70644 0.42081 
6.000 780.0 34.145 27.354 120.074 0.70634 0.40902 
6.025 780.0 30.021 26.832 119.884 0.69845 0.40136 
6.050 780.0 26.921 26.921 120.650 0.69459 0.41160 
6.075 780.0 24.099 26.172 119.369 0.68994 0.38826 
6.100 780.0 21.851 26.312 120.579 0.68415 0.40426 
6.125 780.0 19.525 26.478 120.320 0.68901 0.40294 
6.150 780.0 17.903 26.188 120.524 0.68227 0.40228 
6.175 780.0 16.061 25.840 120.045 0.67914 0.39281 
6.200 780.0 14.439 25.690 120.163 0.67552 0.39258 
6.225 780.0 13.385 25.181 120.695 0.66220 0.39311 
6.250 780.0 12.130 24.875 120.117 0.66020 0.38296 
6.275 780.0 11.055 25.208 119.789 0.66885 0.38288 
6.300 780.0 9.978 25.011 120.852 0.65786 0.39298 
6.325 780.0 9.184 24.912 120.723 0.65682 0.39035 
6.350 780.0 8.293 24.434 120.879 0.64644 0.38656 
6.375 780.0 7.426 24.265 119.735 0.65064 0.37165 
6.400 780.0 6.683 23.908 120.418 0.63900 0.37516 
6.425 780.0 6.045 23.405 121.095 0.62433 0.37655 
6.450 780.0 5.483 23.168 119.431 0.63004 0.35546 
6.475 780.0 4.833 22.708 119.959 0.61706 0.35567 
6.500 780.0 4.321 22.501 122.644 0.59544 0.38144 

# MINIMA:
0.600 347.0 4.321 22.501 119.369 0.21228 0.35546 

# MAXIMA:
6.500 1835.2 80.602 45.000 167.248 0.74042 0.98188 

# PEAKS:

# END SPECTRUM


# SPECTRUM:
2

# START TIME:
15:32:11

# END TIME:
15:42:37

# THETA ANGLE:
0.00 ø

# INCIDENCE ANGLE:
60.00 ø

# ACCUMULATION NUMBER:
1

# ELLIPSOMETRIC CONFIGURATION:
+90.00 øModulator
+45.00 øAnalyser

# INTEGRATION TIME:
500 ms

# FIRST POINT:
0.6000 eV

# LAST POINT:
6.5000 eV

# INCREMENT:
0.0250 eV

# NUMBER OF POINTS:
237

# DATA:
eV Hv S0 Psi Delta Is Ic 
0.600 1003.3 76.759 44.730 164.096 0.27401 0.96168 
0.625 806.5 66.471 36.648 163.298 0.27527 0.91739 
0.650 806.5 77.173 38.248 162.972 0.28475 0.92972 
0.675 806.5 71.761 45.000 162.801 0.29703 0.95960 
0.700 704.9 67.430 39.430 162.205 0.29986 0.93421 
0.725 704.9 78.949 37.602 161.348 0.30921 0.91606 
0.750 628.7 62.171 36.975 161.039 0.31226 0.90887 
0.775 628.7 74.828 40.943 160.918 0.32364 0.93559 
0.800 431.8 77.783 38.563 160.302 0.32859 0.91781 
0.825 533.4 62.327 38.541 159.836 0.33599 0.91495 
0.850 622.3 79.482 37.726 159.369 0.34104 0.90586 
0.875 425.5 68.356 38.883 158.954 0.35097 0.91209 
0.900 520.7 79.207 38.134 158.525 0.35563 0.90398 
0.925 622.3 81.496 38.083 158.153 0.36133 0.90126 
0.950 622.3 68.944 37.385 157.536 0.36869 0.89166 
0.975 425.5 60.718 37.374 157.055 0.37612 0.88844 
1.000 622.3 64.750 38.138 156.754 0.38340 0.89259 
1.025 622.3 65.155 37.849 156.262 0.39007 0.88702 
1.050 425.5 70.767 37.461 155.895 0.39435 0.88137 
1.075 704.9 81.441 37.618 155.441 0.40190 0.87950 
1.100 603.3 61.702 37.018 154.955 0.40701 0.87104 
1.125 685.8 79.776 37.657 154.604 0.41486 0.87386 
1.150 584.2 66.187 37.031 154.092 0.42014 0.86491 
1.175 584.2 69.373 37.034 153.666 0.42657 0.86179 
1.200 685.8 75.065 36.851 153.168 0.43324 0.85647 
1.225 489.0 69.708 36.678 152.807 0.43785 0.85220 
1.250 330.2 61.864 36.658 152.339 0.44469 0.84842 
1.275 596.9 78.565 36.664 152.007 0.44963 0.84588 
1.300 514.4 61.110 36.610 151.652 0.45460 0.84261 
1.325 711.2 75.837 36.400 151.290 0.45889 0.83784 
1.350 412.8 64.478 37.007 150.991 0.46620 0.84072 
1.375 711.2 62.478 36.743 150.636 0.47013 0.83558 
1.400 514.4 63.505 36.317 150.082 0.47603 0.82723 
1.425 1212.9 69.938 36.801 149.866 0.48160 0.82968 
1.450 1714.5 62.341 36.486 149.555 0.48450 0.82432 
1.475 780.0 0.000 0.000 0.000 0.00000 0.00000 
1.500 425.0 60.461 36.146 148.773 0.49386 0.81460 
1.525 531.0 87.956 35.919 148.349 0.49860 0.80885 
1.550 471.0 73.562 35.779 148.065 0.50180 0.80506 
1.575 508.0 67.148 35.420 147.665 0.50524 0.79813 
1.600 508.0 74.857 35.252 147.259 0.50983 0.79290 
1.625 468.0 71.104 35.559 147.135 0.51347 0.79475 
1.650 468.0 62.536 35.565 146.814 0.51794 0.79192 
1.675 468.0 73.237 35.102 146.301 0.52204 0.78279 
1.700 458.0 70.582 34.985 145.988 0.52553 0.77878 
1.725 449.0 69.648 34.860 145.708 0.52849 0.77496 
1.750 449.0 76.661 34.930 145.400 0.53313 0.77280 
1.775 437.0 71.267 34.774 145.098 0.53611 0.76843 
1.800 424.0 70.384 34.650 144.777 0.53953 0.76417 
1.825 424.0 74.565 34.527 144.510 0.54219 0.76042 
1.850 415.0 69.364 34.397 144.248 0.54472 0.75660 
1.875 415.0 73.921 34.255 143.895 0.54830 0.75178 
1.900 406.0 70.216 34.162 143.648 0.55083 0.74843 
1.925 406.0 75.380 34.053 143.327 0.55417 0.74421 
1.950 397.0 68.886 33.977 143.089 0.55666 0.74111 
1.975 397.0 73.901 33.819 142.811 0.55899 0.73674 
2.000 397.0 78.275 33.879 142.557 0.56273 0.73488 
2.025 390.0 69.511 33.699 142.269 0.56496 0.73015 
2.050 390.0 67.521 33.565 141.982 0.56749 0.72589 
2.075 390.0 79.229 33.490 141.735 0.56998 0.72263 
2.100 382.0 70.546 33.295 141.398 0.57256 0.71717 
2.125 382.0 72.233 33.173 141.128 0.57487 0.71314 
2.150 382.0 73.673 33.140 140.868 0.57780 0.71017 
2.175 382.0 74.766 33.024 140.575 0.58037 0.70593 
2.200 382.0 75.482 32.942 140.312 0.58287 0.70237 
2.225 382.0 76.584 32.836 139.984 0.58591 0.69786 
2.250 382.0 77.892 32.729 139.677 0.58863 0.69353 
2.275 375.0 68.811 32.563 139.291 0.59171 0.68771 
2.300 375.0 68.517 32.464 139.010 0.59412 0.68370 
2.325 375.0 68.924 32.335 138.700 0.59654 0.67903 
2.350 375.0 69.030 32.156 138.384 0.59849 0.67373 
2.375 375.0 68.734 31.961 138.059 0.60032 0.66811 
2.400 375.0 69.182 31.769 137.834 0.60094 0.66355 
2.425 375.0 71.305 31.573 137.625 0.60129 0.65908 
2.450 368.0 70.068 31.313 137.463 0.60036 0.65432 
2.475 368.0 68.721 31.056 137.450 0.59770 0.65113 
2.500 354.0 69.000 30.585 137.680 0.58983 0.64775 
2.525 354.0 68.715 30.379 137.830 0.58578 0.64671 
2.550 354.0 67.465 30.321 138.090 0.58219 0.64862 
2.575 354.0 71.428 30.093 138.247 0.57777 0.64728 
2.600 354.0 66.293 30.210 138.432 0.57703 0.65066 
2.625 354.0 78.357 30.065 138.598 0.57348 0.65044 
2.650 347.0 69.687 29.968 138.553 0.57288 0.64873 
2.675 347.0 60.589 30.017 138.621 0.57267 0.65006 
2.700 357.0 68.165 29.882 138.565 0.57174 0.64770 
2.725 357.0 63.448 29.998 138.620 0.57247 0.64979 
2.750 357.0 65.709 29.982 138.550 0.57307 0.64889 
2.775 365.0 66.927 29.982 138.528 0.57332 0.64866 
2.800 365.0 65.385 30.006 138.485 0.57408 0.64854 
2.825 365.0 64.337 29.947 138.378 0.57462 0.64670 
2.850 365.0 60.398 29.864 138.230 0.57531 0.64412 
2.875 373.0 67.991 29.989 138.178 0.57735 0.64523 
2.900 373.0 65.966 29.822 137.977 0.57764 0.64103 
2.925 373.0 63.914 29.860 137.936 0.57855 0.64111 
2.950 373.0 63.567 29.827 137.850 0.57912 0.63981 
2.975 373.0 59.389 29.704 137.706 0.57928 0.63675 
3.000 383.0 69.401 29.737 137.649 0.58029 0.63660 
3.025 383.0 65.843 29.658 137.539 0.58057 0.63445 
3.050 383.0 62.006 29.601 137.470 0.58065 0.63300 
3.075 392.0 70.404 29.501 137.332 0.58095 0.63029 
3.100 380.0 70.159 29.405 137.226 0.58094 0.62794 
3.125 380.0 67.480 29.514 137.225 0.58228 0.62937 
3.150 380.0 62.849 29.400 137.150 0.58173 0.62710 
3.175 388.0 68.661 29.227 137.037 0.58081 0.62365 
3.200 388.0 64.403 29.135 137.028 0.57975 0.62233 
3.225 388.0 60.910 29.019 137.013 0.57846 0.62061 
3.250 397.0 68.041 28.941 137.077 0.57680 0.62020 
3.275 397.0 63.126 28.862 137.191 0.57456 0.62027 
3.300 406.0 68.354 28.629 137.272 0.57071 0.61787 
3.325 406.0 61.335 28.576 137.593 0.56657 0.62032 
3.350 416.0 68.233 28.609 138.019 0.56236 0.62498 
3.375 416.0 67.352 28.637 138.432 0.55818 0.62941 
3.400 416.0 66.474 28.601 138.767 0.55405 0.63214 
3.425 416.0 64.234 28.658 139.086 0.55122 0.63604 
3.450 416.0 61.878 28.839 139.391 0.55005 0.64154 
3.475 425.0 68.843 28.825 139.554 0.54805 0.64290 
3.500 425.0 65.235 28.984 139.790 0.54731 0.64741 
3.525 425.0 62.005 29.102 139.988 0.54647 0.65097 
3.550 425.0 59.010 29.267 140.130 0.54678 0.65464 
3.575 436.0 68.153 29.372 140.257 0.54655 0.65731 
3.600 436.0 65.632 29.510 140.391 0.54660 0.66052 
3.625 436.0 63.294 29.611 140.459 0.54697 0.66256 
3.650 436.0 61.428 29.838 140.635 0.54748 0.66734 
3.675 436.0 59.937 30.074 140.733 0.54896 0.67148 
3.700 436.0 58.474 30.209 140.689 0.55095 0.67287 
3.725 447.0 68.878 30.404 140.646 0.55357 0.67504 
3.750 447.0 66.620 30.625 140.623 0.55621 0.67770 
3.775 447.0 64.178 30.865 140.584 0.55921 0.68041 
3.800 447.0 61.367 31.039 140.408 0.56311 0.68089 
3.825 458.0 69.375 31.258 140.234 0.56747 0.68191 
3.850 458.0 64.911 31.374 139.987 0.57160 0.68089 
3.875 458.0 59.201 31.738 139.778 0.57779 0.68319 
3.900 472.0 67.867 31.953 139.470 0.58361 0.68259 
3.925 472.0 62.494 32.227 139.110 0.59061 0.68206 
3.950 483.0 69.474 32.459 138.722 0.59751 0.68065 
3.975 483.0 64.885 32.716 138.346 0.60447 0.67953 
4.000 483.0 60.637 32.927 137.963 0.61103 0.67772 
4.025 494.0 67.540 33.150 137.400 0.61980 0.67401 
4.050 494.0 64.117 33.316 136.813 0.62825 0.66931 
4.075 494.0 60.686 33.508 136.272 0.63637 0.66526 
4.100 507.0 68.954 33.751 135.612 0.64628 0.66023 
4.125 507.0 65.268 33.983 135.033 0.65508 0.65585 
4.150 507.0 62.264 34.261 134.296 0.66604 0.64987 
4.175 507.0 60.109 34.406 133.503 0.67631 0.64186 
4.200 507.0 58.843 34.704 132.715 0.68779 0.63502 
4.225 518.0 67.685 34.878 131.708 0.70043 0.62424 
4.250 518.0 65.813 35.070 130.756 0.71245 0.61401 
4.275 518.0 63.929 35.051 129.745 0.72300 0.60120 
4.300 493.0 70.469 34.292 128.234 0.73126 0.57615 
4.325 493.0 75.838 34.455 127.275 0.74244 0.56508 
4.350 483.0 68.347 33.770 125.814 0.74941 0.54077 
4.375 483.0 71.275 34.219 125.341 0.75863 0.53796 
4.400 483.0 74.234 34.134 124.616 0.76449 0.52771 
4.425 483.0 75.994 33.849 123.910 0.76784 0.51616 
4.450 483.0 77.591 33.825 123.282 0.77319 0.50754 
4.475 483.0 78.327 33.826 122.780 0.77761 0.50074 
4.500 483.0 78.604 33.597 122.253 0.77959 0.49194 
4.525 483.0 78.097 33.560 121.757 0.78339 0.48491 
4.550 483.0 77.976 33.338 121.207 0.78540 0.47579 
4.575 483.0 76.417 33.180 120.705 0.78766 0.46777 
4.600 483.0 74.863 33.038 120.330 0.78898 0.46159 
4.625 483.0 72.564 32.980 120.048 0.79053 0.45729 
4.650 483.0 70.542 32.787 119.460 0.79277 0.44779 
4.675 483.0 67.586 32.749 119.039 0.79556 0.44169 
4.700 483.0 64.982 32.623 118.615 0.79720 0.43492 
4.725 483.0 62.591 32.626 118.335 0.79935 0.43104 
4.750 493.0 69.862 32.555 118.046 0.80060 0.42652 
4.775 493.0 65.890 32.450 117.652 0.80213 0.42028 
4.800 493.0 63.407 32.204 117.000 0.80360 0.40945 
4.825 503.0 69.589 32.111 116.646 0.80485 0.40385 
4.850 503.0 66.117 32.108 116.340 0.80696 0.39952 
4.875 503.0 62.334 32.089 115.861 0.81000 0.39264 
4.900 503.0 59.331 32.122 115.730 0.81135 0.39100 
4.925 516.0 68.605 31.743 114.965 0.81122 0.37768 
4.950 516.0 64.643 31.800 114.793 0.81316 0.37561 
4.975 516.0 61.481 31.787 114.587 0.81431 0.37259 
5.000 516.0 57.863 31.648 114.111 0.81541 0.36493 
5.025 533.0 69.843 31.527 113.741 0.81600 0.35890 
5.050 533.0 65.166 31.390 113.529 0.81532 0.35500 
5.075 533.0 61.742 31.481 113.324 0.81791 0.35266 
5.100 547.0 69.185 31.359 112.866 0.81892 0.34535 
5.125 547.0 64.986 31.322 112.711 0.81931 0.34291 
5.150 547.0 60.270 31.065 112.142 0.81882 0.33319 
5.175 564.0 70.563 30.988 111.854 0.81931 0.32860 
5.200 564.0 64.775 30.887 111.405 0.82031 0.32156 
5.225 564.0 59.990 30.784 111.019 0.82088 0.31541 
5.250 582.0 70.251 30.780 110.904 0.82144 0.31374 
5.275 582.0 65.095 30.664 110.559 0.82150 0.30810 
5.300 582.0 60.664 30.630 110.325 0.82222 0.30456 
5.325 596.0 66.898 30.643 110.197 0.82310 0.30279 
5.350 596.0 62.289 30.384 109.728 0.82143 0.29456 
5.375 609.0 67.879 30.191 109.275 0.82061 0.28697 
5.400 609.0 63.755 30.233 109.275 0.82129 0.28721 
5.425 622.0 69.192 29.869 108.636 0.81844 0.27602 
5.450 622.0 64.004 29.897 108.498 0.81957 0.27419 
5.475 622.0 59.101 29.805 108.456 0.81823 0.27308 
5.500 640.0 67.533 29.800 108.054 0.82004 0.26730 
5.525 640.0 62.690 29.508 107.722 0.81663 0.26096 
5.550 653.0 66.510 29.411 107.630 0.81539 0.25912 
5.575 653.0 61.108 29.289 107.127 0.81552 0.25130 
5.600 670.0 68.615 29.131 106.937 0.81357 0.24776 
5.625 670.0 61.835 28.956 106.533 0.81221 0.24110 
5.650 687.0 67.538 28.922 106.657 0.81108 0.24267 
5.675 687.0 61.065 28.747 106.093 0.81028 0.23376 
5.700 704.0 67.295 28.849 106.533 0.81030 0.24054 
5.725 718.0 70.028 28.557 105.726 0.80831 0.22761 
5.750 718.0 63.937 28.251 105.594 0.80321 0.22417 
5.775 733.0 66.787 28.272 105.711 0.80314 0.22592 
5.800 733.0 59.934 28.182 105.194 0.80347 0.21820 
5.825 754.0 66.485 28.019 105.121 0.80069 0.21636 
5.850 769.0 68.777 27.895 105.061 0.79858 0.21489 
5.875 769.0 61.703 27.757 105.609 0.79386 0.22179 
5.900 780.0 60.176 27.494 104.487 0.79298 0.20489 
5.925 780.0 53.753 27.284 104.214 0.78987 0.20007 
5.950 780.0 48.066 27.276 104.824 0.78753 0.20844 
5.975 780.0 42.262 26.908 103.670 0.78427 0.19076 
6.000 780.0 38.113 26.885 104.571 0.78070 0.20293 
6.025 780.0 33.341 26.585 104.251 0.77578 0.19704 
6.050 780.0 29.813 26.761 104.369 0.77894 0.19955 
6.075 780.0 26.772 26.289 104.854 0.76764 0.20359 
6.100 780.0 24.338 26.299 103.030 0.77394 0.17910 
6.125 780.0 21.577 25.636 103.139 0.75969 0.17733 
6.150 780.0 19.553 25.735 104.894 0.75600 0.20107 
6.175 780.0 17.781 25.554 103.166 0.75788 0.17729 
6.200 780.0 16.063 25.772 103.515 0.76139 0.18301 
6.225 780.0 14.785 25.165 103.730 0.74774 0.18270 
6.250 780.0 13.536 24.997 102.622 0.74746 0.16737 
6.275 780.0 12.349 25.332 104.628 0.74836 0.19532 
6.300 780.0 11.115 24.813 103.356 0.74124 0.17598 
6.325 780.0 10.140 25.045 104.459 0.74277 0.19153 
6.350 780.0 9.157 24.659 104.453 0.73434 0.18927 
6.375 780.0 8.249 24.184 105.255 0.72108 0.19666 
6.400 780.0 7.384 24.378 104.089 0.72928 0.18303 
6.425 780.0 6.537 23.854 104.062 0.71756 0.17973 
6.450 780.0 5.798 23.525 103.296 0.71233 0.16834 
6.475 780.0 5.265 24.003 103.343 0.72315 0.17152 
6.500 780.0 4.699 24.124 103.621 0.72504 0.17569 

# MINIMA:
0.600 330.2 0.000 0.000 0.000 0.00000 0.00000 

# MAXIMA:
6.500 1714.5 87.956 45.000 164.096 0.82310 0.96168 

# PEAKS:

# END SPECTRUM


# SPECTRUM:
3

# START TIME:
15:43:22

# END TIME:
15:53:41

# THETA ANGLE:
0.00 ø

# INCIDENCE ANGLE:
65.00 ø

# ACCUMULATION NUMBER:
1

# ELLIPSOMETRIC CONFIGURATION:
+90.00 øModulator
+45.00 øAnalyser

# INTEGRATION TIME:
500 ms

# FIRST POINT:
0.6000 eV

# LAST POINT:
6.5000 eV

# INCREMENT:
0.0250 eV

# NUMBER OF POINTS:
237

# DATA:
eV Hv S0 Psi Delta Is Ic 
0.600 1003.3 75.416 41.964 159.455 0.34897 0.93115 
0.625 806.5 64.884 41.296 158.942 0.35632 0.92543 
0.650 806.5 76.186 36.647 157.765 0.36243 0.88657 
0.675 806.5 71.248 39.865 157.666 0.37392 0.91016 
0.700 704.9 66.784 39.402 156.966 0.38383 0.90276 
0.725 704.9 78.345 35.857 155.898 0.38774 0.86673 
0.750 622.3 60.676 34.531 155.189 0.39191 0.84776 
0.775 622.3 71.923 40.100 155.267 0.41229 0.89501 
0.800 425.5 75.843 38.109 154.698 0.41509 0.87803 
0.825 527.1 61.605 36.984 153.873 0.42324 0.86290 
0.850 622.3 79.475 37.993 153.550 0.43216 0.86867 
0.875 425.5 68.274 36.662 152.766 0.43838 0.85175 
0.900 520.7 79.515 35.841 152.069 0.44466 0.83874 
0.925 622.3 80.537 36.721 151.818 0.45269 0.84490 
0.950 622.3 68.234 37.595 151.268 0.46475 0.84774 
0.975 425.5 60.767 36.043 150.381 0.47026 0.82718 
1.000 622.3 63.592 36.507 150.073 0.47713 0.82885 
1.025 622.3 64.696 36.098 149.404 0.48460 0.81956 
1.050 425.5 70.220 35.593 148.801 0.49034 0.80967 
1.075 711.2 80.667 36.648 148.449 0.50118 0.81621 
1.100 609.6 61.701 35.920 147.728 0.50735 0.80341 
1.125 609.6 59.840 36.179 147.267 0.51529 0.80164 
1.150 609.6 70.519 35.603 146.614 0.52093 0.79047 
1.175 609.6 74.572 35.603 146.062 0.52853 0.78541 
1.200 711.2 79.913 35.452 145.517 0.53501 0.77893 
1.225 514.4 76.880 35.935 145.215 0.54217 0.78053 
1.250 336.6 63.842 35.015 144.455 0.54640 0.76473 
1.275 603.3 80.010 35.228 143.979 0.55420 0.76220 
1.300 520.7 61.090 35.063 143.501 0.55938 0.75599 
1.325 717.6 75.960 34.977 143.012 0.56520 0.75037 
1.350 419.1 65.220 34.720 142.431 0.57088 0.74214 
1.375 717.6 62.779 34.664 141.939 0.57681 0.73666 
1.400 520.7 63.802 34.904 141.554 0.58356 0.73506 
1.425 1219.2 70.203 34.979 141.207 0.58857 0.73221 
1.450 1720.9 62.465 34.743 140.779 0.59222 0.72558 
1.475 780.0 0.000 0.000 0.000 0.00000 0.00000 
1.500 431.0 61.662 34.251 139.702 0.60177 0.70963 
1.525 526.0 75.271 33.938 139.260 0.60458 0.70189 
1.550 477.0 72.748 34.113 138.972 0.60960 0.70057 
1.575 514.0 66.572 33.698 138.265 0.61455 0.68891 
1.600 514.0 74.408 33.813 137.934 0.61955 0.68648 
1.625 471.0 67.355 33.389 137.435 0.62163 0.67683 
1.650 471.0 60.041 33.491 137.034 0.62730 0.67349 
1.675 471.0 70.524 33.260 136.558 0.63068 0.66595 
1.700 463.0 70.072 33.267 136.231 0.63454 0.66240 
1.725 454.0 69.163 33.034 135.738 0.63793 0.65459 
1.750 454.0 76.962 33.040 135.402 0.64182 0.65089 
1.775 440.0 69.422 32.791 134.955 0.64437 0.64335 
1.800 428.0 70.454 32.695 134.476 0.64874 0.63697 
1.825 428.0 75.023 32.569 134.141 0.65111 0.63189 
1.850 419.0 69.721 32.343 133.682 0.65374 0.62434 
1.875 419.0 74.198 32.360 133.378 0.65723 0.62103 
1.900 410.0 70.614 32.211 132.988 0.65981 0.61502 
1.925 410.0 75.436 32.176 132.633 0.66322 0.61057 
1.950 402.0 70.884 32.013 132.303 0.66488 0.60507 
1.975 402.0 76.513 31.867 131.874 0.66774 0.59858 
2.000 393.0 68.566 31.855 131.577 0.67069 0.59499 
2.025 393.0 69.750 31.693 131.150 0.67320 0.58832 
2.050 393.0 67.480 31.566 130.755 0.67574 0.58235 
2.075 386.0 70.066 31.409 130.326 0.67818 0.57566 
2.100 386.0 72.623 31.341 130.006 0.68055 0.57117 
2.125 386.0 74.060 31.231 129.629 0.68294 0.56556 
2.150 386.0 76.017 31.157 129.245 0.68578 0.56021 
2.175 386.0 77.257 31.077 128.954 0.68761 0.55591 
2.200 386.0 78.280 30.935 128.465 0.69051 0.54856 
2.225 379.0 69.903 30.764 128.015 0.69256 0.54138 
2.250 379.0 70.956 30.663 127.602 0.69511 0.53534 
2.275 379.0 71.724 30.549 127.134 0.69793 0.52850 
2.300 379.0 71.401 30.435 126.735 0.70005 0.52247 
2.325 379.0 71.983 30.293 126.276 0.70225 0.51541 
2.350 379.0 72.559 30.097 125.834 0.70348 0.50800 
2.375 379.0 72.465 29.922 125.430 0.70454 0.50124 
2.400 379.0 73.008 29.668 125.046 0.70421 0.49393 
2.425 379.0 75.022 29.416 124.714 0.70336 0.48728 
2.450 369.0 69.932 29.103 124.454 0.70084 0.48086 
2.475 369.0 68.411 28.825 124.285 0.69801 0.47589 
2.500 360.0 70.493 28.415 124.536 0.68953 0.47455 
2.525 360.0 70.176 28.259 124.742 0.68537 0.47532 
2.550 360.0 68.693 28.049 124.882 0.68087 0.47466 
2.575 360.0 72.719 27.905 125.093 0.67681 0.47554 
2.600 360.0 67.551 27.872 125.203 0.67537 0.47648 
2.625 353.0 69.839 27.717 125.236 0.67260 0.47510 
2.650 353.0 72.176 27.757 125.451 0.67146 0.47808 
2.675 353.0 62.850 27.627 125.240 0.67111 0.47412 
2.700 361.0 67.399 27.563 125.270 0.66982 0.47373 
2.725 361.0 62.455 27.570 125.192 0.67058 0.47290 
2.750 361.0 65.327 27.596 125.215 0.67080 0.47347 
2.775 371.0 68.661 27.564 125.147 0.67085 0.47231 
2.800 371.0 67.291 27.559 125.050 0.67157 0.47111 
2.825 371.0 65.669 27.480 124.864 0.67179 0.46803 
2.850 371.0 62.036 27.486 124.716 0.67310 0.46635 
2.875 371.0 59.945 27.365 124.446 0.67328 0.46180 
2.900 379.0 68.183 27.457 124.413 0.67508 0.46246 
2.925 379.0 66.485 27.377 124.244 0.67511 0.45956 
2.950 379.0 65.428 27.351 124.094 0.67588 0.45750 
2.975 379.0 61.445 27.209 123.832 0.67558 0.45281 
3.000 387.0 68.665 27.270 123.780 0.67702 0.45288 
3.025 387.0 65.506 27.199 123.576 0.67743 0.44967 
3.050 387.0 62.339 27.113 123.335 0.67784 0.44585 
3.075 396.0 69.987 27.085 123.280 0.67779 0.44489 
3.100 384.0 69.848 27.059 123.183 0.67811 0.44345 
3.125 384.0 67.294 26.965 122.937 0.67837 0.43949 
3.150 384.0 63.088 26.828 122.719 0.67768 0.43537 
3.175 384.0 58.841 26.750 122.601 0.67720 0.43310 
3.200 396.0 69.205 26.690 122.599 0.67617 0.43241 
3.225 396.0 65.437 26.536 122.419 0.67480 0.42856 
3.250 396.0 61.926 26.425 122.417 0.67285 0.42729 
3.275 405.0 67.629 26.273 122.416 0.67015 0.42555 
3.300 405.0 61.718 26.124 122.492 0.66689 0.42474 
3.325 417.0 69.219 25.971 122.698 0.66262 0.42536 
3.350 417.0 64.354 25.886 123.037 0.65854 0.42827 
3.375 417.0 64.072 25.789 123.383 0.65420 0.43108 
3.400 417.0 62.783 25.737 123.738 0.65056 0.43450 
3.425 417.0 61.000 25.810 124.209 0.64829 0.44073 
3.450 417.0 58.589 25.822 124.543 0.64592 0.44464 
3.475 429.0 68.992 25.911 124.867 0.64498 0.44939 
3.500 429.0 65.391 25.955 125.074 0.64412 0.45227 
3.525 429.0 62.051 26.044 125.283 0.64403 0.45571 
3.550 429.0 59.161 26.178 125.561 0.64414 0.46050 
3.575 440.0 68.132 26.272 125.853 0.64341 0.46495 
3.600 440.0 65.739 26.316 125.990 0.64306 0.46703 
3.625 440.0 63.353 26.419 126.197 0.64312 0.47064 
3.650 440.0 61.837 26.561 126.439 0.64352 0.47512 
3.675 440.0 60.388 26.757 126.652 0.64503 0.47994 
3.700 449.0 68.085 26.946 126.874 0.64628 0.48479 
3.725 449.0 66.794 27.116 126.981 0.64816 0.48809 
3.750 449.0 65.045 27.349 127.099 0.65093 0.49228 
3.775 449.0 62.555 27.515 127.169 0.65299 0.49509 
3.800 449.0 59.557 27.716 127.155 0.65629 0.49735 
3.825 461.0 68.239 27.994 127.217 0.66010 0.50136 
3.850 461.0 63.731 28.238 127.125 0.66470 0.50316 
3.875 472.0 69.605 28.497 127.067 0.66916 0.50547 
3.900 472.0 63.801 28.767 126.956 0.67421 0.50723 
3.925 482.0 69.039 29.031 126.736 0.68008 0.50758 
3.950 482.0 64.155 29.308 126.540 0.68590 0.50827 
3.975 482.0 59.888 29.607 126.251 0.69280 0.50800 
4.000 494.0 67.373 29.946 126.068 0.69926 0.50931 
4.025 494.0 63.456 30.168 125.656 0.70605 0.50652 
4.050 494.0 60.094 30.452 125.277 0.71335 0.50465 
4.075 507.0 68.972 30.739 124.921 0.72043 0.50297 
4.100 507.0 64.790 31.093 124.355 0.73018 0.49912 
4.125 507.0 61.154 31.385 123.885 0.73816 0.49575 
4.150 507.0 58.066 31.726 123.354 0.74722 0.49184 
4.175 522.0 70.215 32.100 122.580 0.75865 0.48480 
4.200 522.0 68.516 32.472 121.944 0.76871 0.47931 
4.225 522.0 67.327 32.772 120.999 0.78027 0.46882 
4.250 522.0 65.650 33.124 120.043 0.79233 0.45824 
4.275 522.0 63.815 33.386 118.965 0.80400 0.44503 
4.300 500.0 70.431 33.472 117.518 0.81602 0.42512 
4.325 500.0 75.436 33.568 116.370 0.82555 0.40927 
4.350 500.0 79.633 33.405 114.888 0.83384 0.38684 
4.375 489.0 70.630 33.572 113.766 0.84335 0.37136 
4.400 489.0 73.299 33.441 112.595 0.84911 0.35337 
4.425 489.0 75.466 33.320 111.545 0.85389 0.33713 
4.450 489.0 77.274 33.201 110.625 0.85764 0.32280 
4.475 489.0 78.581 33.132 109.720 0.86172 0.30889 
4.500 481.0 70.678 32.979 108.973 0.86363 0.29692 
4.525 481.0 70.126 32.958 108.301 0.86677 0.28667 
4.550 481.0 70.851 32.722 107.585 0.86705 0.27479 
4.575 481.0 69.723 32.723 107.090 0.86940 0.26730 
4.600 481.0 68.649 32.367 106.232 0.86829 0.25279 
4.625 481.0 66.700 32.317 105.834 0.86931 0.24655 
4.650 481.0 65.569 32.261 105.395 0.87036 0.23965 
4.675 481.0 62.870 32.308 105.036 0.87252 0.23438 
4.700 481.0 61.141 32.167 104.544 0.87244 0.22635 
4.725 481.0 58.447 32.023 104.085 0.87212 0.21882 
4.750 496.0 71.283 31.853 103.516 0.87170 0.20954 
4.775 496.0 66.819 31.773 103.052 0.87216 0.20220 
4.800 496.0 64.274 31.955 102.830 0.87569 0.19944 
4.825 496.0 61.372 31.694 102.199 0.87387 0.18892 
4.850 508.0 69.496 31.586 101.750 0.87367 0.18172 
4.875 508.0 66.042 31.595 101.325 0.87513 0.17527 
4.900 508.0 61.772 31.574 100.841 0.87625 0.16781 
4.925 518.0 68.539 31.473 100.376 0.87602 0.16041 
4.950 518.0 65.383 31.486 100.073 0.87705 0.15580 
4.975 518.0 61.833 31.259 99.476 0.87506 0.14605 
5.000 530.0 69.602 31.344 99.123 0.87727 0.14088 
5.025 530.0 65.444 31.437 98.762 0.87962 0.13558 
5.050 530.0 62.677 31.122 98.251 0.87578 0.12699 
5.075 541.0 68.073 30.991 97.971 0.87426 0.12242 
5.100 541.0 63.686 30.976 97.567 0.87487 0.11621 
5.125 541.0 59.500 30.892 97.303 0.87403 0.11201 
5.150 557.0 68.802 30.829 96.733 0.87406 0.10319 
5.175 557.0 63.207 30.807 96.439 0.87421 0.09866 
5.200 569.0 69.759 30.771 96.105 0.87419 0.09350 
5.225 569.0 64.167 30.604 95.576 0.87223 0.08515 
5.250 581.0 69.883 30.580 95.401 0.87208 0.08245 
5.275 581.0 65.179 30.551 95.025 0.87212 0.07669 
5.300 593.0 69.671 30.472 94.562 0.87138 0.06953 
5.325 593.0 64.897 30.348 94.142 0.86976 0.06299 
5.350 593.0 60.447 30.287 93.741 0.86913 0.05682 
5.375 609.0 68.573 30.252 93.492 0.86878 0.05301 
5.400 609.0 63.939 29.958 93.187 0.86395 0.04811 
5.425 609.0 59.366 29.961 92.498 0.86452 0.03771 
5.450 625.0 67.160 29.804 92.417 0.86182 0.03637 
5.475 625.0 61.644 29.751 92.168 0.86104 0.03259 
5.500 640.0 68.822 29.671 91.553 0.85990 0.02331 
5.525 640.0 63.677 29.621 91.303 0.85912 0.01954 
5.550 640.0 58.465 29.427 91.251 0.85564 0.01869 
5.575 662.0 69.371 29.421 90.905 0.85563 0.01352 
5.600 662.0 63.898 29.284 90.257 0.85326 0.00383 
5.625 679.0 70.498 29.120 90.342 0.85024 0.00507 
5.650 679.0 63.844 29.067 90.062 0.84929 0.00092 
5.675 693.0 68.747 29.045 89.339 0.84882 -0.00980 
5.700 693.0 61.800 28.905 89.414 0.84625 -0.00865 
5.725 711.0 67.967 28.720 88.884 0.84267 -0.01641 
5.750 711.0 62.562 28.695 88.912 0.84220 -0.01599 
5.775 729.0 67.427 28.523 88.705 0.83889 -0.01897 
5.800 729.0 59.971 28.478 88.242 0.83785 -0.02571 
5.825 750.0 67.282 28.366 88.097 0.83566 -0.02777 
5.850 750.0 59.818 28.190 87.751 0.83210 -0.03268 
5.875 775.0 68.050 27.919 86.519 0.82593 -0.05024 
5.900 775.0 60.301 27.795 86.495 0.82347 -0.05044 
5.925 780.0 56.546 27.743 87.575 0.82325 -0.03487 
5.950 780.0 49.788 27.903 86.648 0.82572 -0.04837 
5.975 780.0 44.266 27.534 86.730 0.81851 -0.04676 
6.000 780.0 39.723 27.332 86.923 0.81459 -0.04379 
6.025 780.0 35.446 27.069 86.208 0.80866 -0.05360 
6.050 780.0 31.611 27.627 86.065 0.81975 -0.05639 
6.075 780.0 28.715 27.141 86.928 0.81073 -0.04351 
6.100 780.0 25.737 26.851 85.200 0.80312 -0.06744 
6.125 780.0 23.049 26.840 84.453 0.80195 -0.07788 
6.150 780.0 20.890 26.630 86.163 0.79957 -0.05363 
6.175 780.0 18.998 26.198 84.508 0.78860 -0.07582 
6.200 780.0 17.326 26.702 84.989 0.79980 -0.07012 
6.225 780.0 15.813 25.689 85.242 0.77858 -0.06481 
6.250 780.0 14.417 26.240 84.989 0.79011 -0.06928 
6.275 780.0 13.172 25.913 85.871 0.78409 -0.05661 
6.300 780.0 11.920 25.880 85.490 0.78299 -0.06177 
6.325 780.0 10.804 25.870 84.883 0.78208 -0.07003 
6.350 780.0 9.869 25.748 85.505 0.78016 -0.06134 
6.375 780.0 8.821 25.146 86.130 0.76755 -0.05192 
6.400 780.0 7.873 25.336 86.360 0.77198 -0.04910 
6.425 780.0 7.072 25.629 85.497 0.77757 -0.06123 
6.450 780.0 6.339 25.387 85.883 0.77265 -0.05562 
6.475 780.0 5.598 25.972 86.382 0.78583 -0.04969 
6.500 780.0 4.987 25.018 87.633 0.76579 -0.03165 

# MINIMA:
0.600 336.6 0.000 0.000 0.000 0.00000 -0.07788 

# MAXIMA:
6.500 1720.9 80.667 41.964 159.455 0.87962 0.93115 

# PEAKS:

# END SPECTRUM


# SPECTRUM:
4

# START TIME:
15:54:25

# END TIME:
16:04:40

# THETA ANGLE:
0.00 ø

# INCIDENCE ANGLE:
70.00 ø

# ACCUMULATION NUMBER:
1

# ELLIPSOMETRIC CONFIGURATION:
+90.00 øModulator
+45.00 øAnalyser

# INTEGRATION TIME:
500 ms

# FIRST POINT:
0.6000 eV

# LAST POINT:
6.5000 eV

# INCREMENT:
0.0250 eV

# NUMBER OF POINTS:
237

# DATA:
eV Hv S0 Psi Delta Is Ic 
0.600 1003.3 64.756 36.575 152.369 0.44387 0.84792 
0.625 901.7 73.024 36.038 151.461 0.45457 0.83586 
0.650 800.1 64.624 36.913 150.771 0.46898 0.83814 
0.675 800.1 61.344 35.302 149.825 0.47412 0.81543 
0.700 800.1 78.965 35.355 149.187 0.48348 0.81063 
0.725 698.5 68.673 36.390 148.432 0.50005 0.81382 
0.750 698.5 69.922 36.080 147.804 0.50720 0.80553 
0.775 603.3 62.685 34.418 146.593 0.51345 0.77848 
0.800 406.4 61.288 34.598 146.023 0.52242 0.77520 
0.825 603.3 72.916 34.306 145.127 0.53238 0.76392 
0.850 603.3 67.947 34.862 144.650 0.54272 0.76508 
0.875 425.5 62.373 36.155 144.374 0.55495 0.77440 
0.900 527.1 75.869 35.117 143.335 0.56195 0.75488 
0.925 628.7 76.823 34.046 142.313 0.56719 0.73421 
0.950 628.7 65.068 35.534 142.030 0.58196 0.74570 
0.975 450.9 63.131 35.094 141.209 0.58940 0.73330 
1.000 647.7 64.453 35.163 140.539 0.59844 0.72699 
1.025 647.7 65.207 34.702 139.681 0.60569 0.71372 
1.050 450.9 74.764 34.322 138.976 0.61130 0.70263 
1.075 749.3 83.246 34.351 138.324 0.61950 0.69590 
1.100 647.7 64.112 34.393 137.616 0.62843 0.68859 
1.125 647.7 62.181 34.659 136.911 0.63911 0.68323 
1.150 647.7 74.268 33.866 136.097 0.64173 0.66678 
1.175 647.7 78.102 33.749 135.291 0.64994 0.65658 
1.200 749.3 82.300 33.643 134.665 0.65608 0.64844 
1.225 476.3 61.061 33.381 133.907 0.66202 0.63723 
1.250 374.7 77.919 33.243 133.308 0.66725 0.62896 
1.275 571.5 64.157 33.465 132.558 0.67769 0.62225 
1.300 571.5 69.654 33.463 132.179 0.68176 0.61774 
1.325 755.7 79.883 33.190 131.450 0.68674 0.60650 
1.350 457.2 75.356 32.930 130.715 0.69168 0.59525 
1.375 755.7 66.361 33.027 130.209 0.69797 0.59001 
1.400 558.8 69.905 32.896 129.511 0.70366 0.58027 
1.425 1257.3 68.369 32.604 128.800 0.70751 0.56885 
1.450 1955.8 63.640 32.631 128.349 0.71228 0.56351 
1.475 780.0 0.000 0.000 0.000 0.00000 0.00000 
1.500 438.0 63.234 32.091 126.987 0.71904 0.54158 
1.525 533.0 74.235 32.132 126.480 0.72430 0.53557 
1.550 483.0 71.318 31.831 125.864 0.72628 0.52505 
1.575 522.0 66.737 31.869 125.392 0.73107 0.51939 
1.600 522.0 74.054 31.645 124.663 0.73474 0.50805 
1.625 468.0 58.513 31.513 124.136 0.73766 0.50012 
1.650 485.0 67.653 31.515 123.679 0.74165 0.49423 
1.675 485.0 79.241 31.414 123.108 0.74520 0.48595 
1.700 469.0 69.968 31.208 122.457 0.74788 0.47566 
1.725 460.0 69.142 31.098 121.938 0.75065 0.46793 
1.750 460.0 76.462 31.053 121.388 0.75447 0.46031 
1.775 447.0 69.990 30.911 120.978 0.75576 0.45371 
1.800 433.0 69.235 30.784 120.355 0.75884 0.44440 
1.825 433.0 73.554 30.731 119.863 0.76185 0.43743 
1.850 425.0 70.046 30.495 119.281 0.76280 0.42774 
1.875 425.0 74.175 30.440 118.805 0.76550 0.42093 
1.900 414.0 69.283 30.299 118.278 0.76723 0.41272 
1.925 414.0 74.588 30.234 117.866 0.76919 0.40667 
1.950 406.0 70.529 30.092 117.410 0.77022 0.39942 
1.975 406.0 76.537 30.022 116.866 0.77289 0.39154 
2.000 398.0 70.610 29.930 116.376 0.77478 0.38420 
2.025 398.0 71.873 29.827 115.861 0.77657 0.37643 
2.050 398.0 70.045 29.732 115.390 0.77811 0.36930 
2.075 388.0 69.383 29.567 114.856 0.77886 0.36081 
2.100 388.0 72.362 29.501 114.366 0.78084 0.35364 
2.125 388.0 74.516 29.390 113.887 0.78194 0.34629 
2.150 388.0 76.463 29.330 113.354 0.78412 0.33857 
2.175 388.0 78.738 29.213 112.871 0.78498 0.33113 
2.200 380.0 68.975 29.082 112.333 0.78583 0.32282 
2.225 380.0 70.066 29.010 111.772 0.78772 0.31461 
2.250 380.0 71.631 28.926 111.278 0.78895 0.30725 
2.275 380.0 72.444 28.850 110.681 0.79080 0.29851 
2.300 380.0 72.459 28.713 110.122 0.79127 0.28990 
2.325 380.0 73.144 28.583 109.496 0.79206 0.28043 
2.350 380.0 73.711 28.396 108.910 0.79153 0.27115 
2.375 380.0 73.950 28.218 108.317 0.79105 0.26188 
2.400 380.0 74.993 27.963 107.760 0.78884 0.25266 
2.425 380.0 77.978 27.728 107.204 0.78684 0.24362 
2.450 368.0 69.879 27.434 106.788 0.78296 0.23621 
2.475 368.0 69.319 27.119 106.482 0.77810 0.23022 
2.500 368.0 75.147 26.733 106.627 0.76991 0.22991 
2.525 368.0 75.138 26.516 106.662 0.76542 0.22908 
2.550 368.0 73.775 26.268 106.742 0.76009 0.22864 
2.575 368.0 77.905 26.098 106.824 0.75630 0.22868 
2.600 368.0 72.790 26.026 106.988 0.75416 0.23039 
2.625 358.0 70.549 25.977 107.148 0.75251 0.23219 
2.650 358.0 73.029 25.893 107.100 0.75096 0.23102 
2.675 358.0 63.749 25.789 106.922 0.74954 0.22804 
2.700 366.0 68.293 25.764 107.016 0.74865 0.22912 
2.725 366.0 63.781 25.737 106.823 0.74884 0.22642 
2.750 366.0 66.375 25.734 106.830 0.74875 0.22648 
2.775 375.0 68.734 25.758 106.696 0.74979 0.22488 
2.800 375.0 67.099 25.730 106.561 0.74973 0.22295 
2.825 375.0 65.664 25.723 106.338 0.75044 0.21998 
2.850 375.0 62.021 25.684 106.026 0.75081 0.21566 
2.875 375.0 59.862 25.646 105.790 0.75089 0.21234 
2.900 383.0 67.826 25.675 105.743 0.75168 0.21190 
2.925 383.0 66.165 25.579 105.418 0.75085 0.20707 
2.950 383.0 65.346 25.629 105.289 0.75237 0.20568 
2.975 383.0 61.683 25.513 104.909 0.75126 0.20001 
3.000 383.0 59.462 25.479 104.593 0.75162 0.19568 
3.025 393.0 68.463 25.478 104.482 0.75198 0.19422 
3.050 393.0 65.291 25.411 104.188 0.75155 0.19001 
3.075 393.0 61.629 25.392 103.952 0.75192 0.18681 
3.100 393.0 78.142 25.350 103.690 0.75186 0.18314 
3.125 393.0 75.155 25.286 103.460 0.75121 0.17980 
3.150 393.0 70.342 25.219 103.296 0.75028 0.17731 
3.175 393.0 66.020 25.115 103.041 0.74880 0.17344 
3.200 393.0 62.192 24.968 102.682 0.74666 0.16803 
3.225 393.0 58.597 24.855 102.441 0.74487 0.16434 
3.250 404.0 68.114 24.764 102.434 0.74287 0.16380 
3.275 404.0 63.638 24.616 102.213 0.74022 0.16022 
3.300 404.0 58.618 24.431 102.094 0.73641 0.15780 
3.325 419.0 68.629 24.282 102.251 0.73262 0.15908 
3.350 419.0 64.361 24.130 102.417 0.72873 0.16045 
3.375 419.0 63.804 23.964 102.655 0.72426 0.16263 
3.400 419.0 63.331 23.917 103.042 0.72209 0.16727 
3.425 419.0 61.906 23.823 103.316 0.71912 0.17020 
3.450 428.0 69.700 23.847 103.756 0.71835 0.17586 
3.475 428.0 66.560 23.848 103.987 0.71766 0.17877 
3.500 428.0 63.411 23.860 104.343 0.71681 0.18328 
3.525 428.0 60.287 23.898 104.511 0.71712 0.18560 
3.550 438.0 68.194 23.973 104.962 0.71734 0.19170 
3.575 438.0 65.849 23.981 105.107 0.71704 0.19357 
3.600 438.0 63.151 24.024 105.458 0.71680 0.19823 
3.625 438.0 61.736 24.070 105.682 0.71706 0.20131 
3.650 438.0 59.660 24.118 105.933 0.71725 0.20476 
3.675 448.0 68.869 24.301 106.456 0.71940 0.21249 
3.700 448.0 67.190 24.406 106.773 0.72053 0.21717 
3.725 448.0 65.534 24.554 106.988 0.72297 0.22087 
3.750 448.0 63.695 24.711 107.236 0.72542 0.22505 
3.775 448.0 61.579 24.878 107.508 0.72794 0.22963 
3.800 458.0 68.825 25.136 107.771 0.73240 0.23473 
3.825 458.0 65.065 25.292 107.851 0.73536 0.23683 
3.850 458.0 60.750 25.505 108.020 0.73913 0.24044 
3.875 471.0 68.457 25.755 108.210 0.74352 0.24460 
3.900 471.0 62.795 26.024 108.347 0.74844 0.24821 
3.925 482.0 68.838 26.307 108.426 0.75384 0.25115 
3.950 482.0 63.789 26.632 108.486 0.76004 0.25410 
3.975 492.0 69.610 26.879 108.359 0.76547 0.25402 
4.000 492.0 65.776 27.155 108.394 0.77069 0.25628 
4.025 492.0 61.652 27.443 108.308 0.77661 0.25696 
4.050 492.0 58.534 27.772 108.114 0.78369 0.25636 
4.075 505.0 67.235 28.141 107.965 0.79123 0.25654 
4.100 505.0 62.872 28.506 107.796 0.79865 0.25636 
4.125 516.0 70.021 28.874 107.408 0.80698 0.25301 
4.150 516.0 66.845 29.281 107.247 0.81483 0.25297 
4.175 516.0 64.587 29.688 106.800 0.82380 0.24872 
4.200 516.0 63.138 30.096 106.299 0.83282 0.24351 
4.225 516.0 61.928 30.583 105.835 0.84278 0.23904 
4.250 516.0 60.399 31.112 105.013 0.85457 0.22919 
4.275 527.0 68.818 31.611 104.158 0.86564 0.21836 
4.300 510.0 70.973 31.780 102.958 0.87260 0.20079 
4.325 510.0 75.776 32.160 101.692 0.88253 0.18263 
4.350 501.0 70.832 32.611 100.518 0.89269 0.16573 
4.375 501.0 74.428 32.643 98.996 0.89723 0.14204 
4.400 501.0 77.484 32.714 97.628 0.90140 0.12072 
4.425 492.0 69.564 32.948 96.607 0.90674 0.10502 
4.450 492.0 71.736 33.032 95.580 0.90967 0.08887 
4.475 492.0 72.756 32.946 94.207 0.91032 0.06696 
4.500 492.0 73.624 32.811 93.080 0.90953 0.04894 
4.525 492.0 75.010 32.781 92.158 0.90976 0.03428 
4.550 492.0 75.353 32.734 91.299 0.90950 0.02062 
4.575 492.0 74.893 32.711 90.524 0.90936 0.00832 
4.600 492.0 73.795 32.542 89.784 0.90692 -0.00343 
4.625 492.0 71.933 32.405 89.251 0.90482 -0.01183 
4.650 492.0 70.826 32.424 88.704 0.90495 -0.02047 
4.675 492.0 69.493 32.324 88.045 0.90316 -0.03083 
4.700 492.0 66.384 32.324 87.597 0.90290 -0.03789 
4.725 492.0 63.996 32.113 87.100 0.89936 -0.04555 
4.750 492.0 62.058 32.063 86.524 0.89810 -0.05455 
4.775 492.0 59.026 31.999 85.983 0.89657 -0.06296 
4.800 503.0 66.344 31.989 85.353 0.89567 -0.07281 
4.825 503.0 64.157 31.977 85.133 0.89521 -0.07622 
4.850 503.0 61.158 31.831 84.589 0.89219 -0.08451 
4.875 516.0 69.808 31.878 83.953 0.89193 -0.09448 
4.900 516.0 67.338 31.872 83.678 0.89137 -0.09876 
4.925 516.0 63.942 31.771 82.989 0.88856 -0.10928 
4.950 516.0 61.516 31.695 82.726 0.88688 -0.11320 
4.975 529.0 70.181 31.691 82.191 0.88573 -0.12147 
5.000 529.0 66.734 31.686 81.837 0.88488 -0.12693 
5.025 529.0 63.198 31.653 81.392 0.88336 -0.13373 
5.050 529.0 59.486 31.581 81.041 0.88139 -0.13896 
5.075 543.0 68.006 31.478 80.563 0.87860 -0.14604 
5.100 543.0 64.854 31.427 80.055 0.87648 -0.15368 
5.125 543.0 59.940 31.406 79.658 0.87506 -0.15969 
5.150 558.0 68.335 31.334 79.165 0.87252 -0.16699 
5.175 558.0 64.647 31.313 78.839 0.87122 -0.17189 
5.200 569.0 68.852 31.318 78.395 0.86996 -0.17865 
5.225 569.0 63.206 31.343 78.119 0.86946 -0.18293 
5.250 569.0 59.710 31.273 77.881 0.86761 -0.18629 
5.275 584.0 67.041 31.229 77.392 0.86529 -0.19354 
5.300 584.0 62.425 31.233 76.977 0.86393 -0.19981 
5.325 600.0 71.608 31.167 76.658 0.86177 -0.20438 
5.350 600.0 66.679 31.046 76.462 0.85914 -0.20686 
5.375 600.0 62.045 30.992 75.651 0.85527 -0.21879 
5.400 613.0 68.456 30.922 75.272 0.85269 -0.22415 
5.425 613.0 63.442 30.941 74.755 0.85094 -0.23191 
5.450 626.0 69.446 30.890 74.463 0.84894 -0.23602 
5.475 626.0 64.309 30.728 74.466 0.84636 -0.23526 
5.500 639.0 70.164 30.739 73.833 0.84388 -0.24465 
5.525 639.0 64.825 30.658 73.664 0.84186 -0.24675 
5.550 639.0 60.096 30.632 73.394 0.84028 -0.25059 
5.575 657.0 67.601 30.489 72.707 0.83491 -0.25993 
5.600 657.0 62.372 30.464 72.531 0.83370 -0.26236 
5.625 673.0 68.194 30.414 72.309 0.83187 -0.26534 
5.650 673.0 62.722 30.305 71.874 0.82806 -0.27107 
5.675 686.0 66.335 30.326 71.660 0.82738 -0.27427 
5.700 686.0 61.012 30.268 71.323 0.82482 -0.27882 
5.725 705.0 67.641 30.109 71.244 0.82183 -0.27906 
5.750 705.0 61.019 30.092 70.831 0.81953 -0.28489 
5.775 722.0 66.942 29.875 71.010 0.81682 -0.28109 
5.800 722.0 59.840 30.012 70.249 0.81527 -0.29273 
5.825 742.0 66.711 29.869 70.165 0.81249 -0.29307 
5.850 742.0 60.030 29.541 69.703 0.80463 -0.29760 
5.875 768.0 68.226 29.585 68.864 0.80093 -0.30963 
5.900 768.0 61.505 29.478 69.096 0.80037 -0.30569 
5.925 780.0 60.132 29.544 68.357 0.79747 -0.31644 
5.950 780.0 54.731 29.018 68.336 0.78846 -0.31319 
5.975 780.0 48.317 29.212 68.775 0.79416 -0.30843 
6.000 780.0 43.536 29.072 67.621 0.78541 -0.32338 
6.025 780.0 38.787 29.164 68.267 0.79058 -0.31513 
6.050 780.0 34.933 29.023 68.211 0.78785 -0.31494 
6.075 780.0 31.362 28.598 67.077 0.77414 -0.32738 
6.100 780.0 28.579 28.692 67.840 0.78008 -0.31771 
6.125 780.0 25.366 28.848 66.982 0.77794 -0.33050 
6.150 780.0 23.400 28.390 67.049 0.77035 -0.32622 
6.175 780.0 21.061 27.890 67.964 0.76648 -0.31025 
6.200 780.0 19.390 28.141 68.106 0.77180 -0.31017 
6.225 780.0 17.657 28.404 66.556 0.76776 -0.33294 
6.250 780.0 16.138 28.571 66.287 0.76910 -0.33782 
6.275 780.0 14.589 28.083 66.543 0.76202 -0.33065 
6.300 780.0 13.339 27.823 67.676 0.76369 -0.31359 
6.325 780.0 12.226 27.519 67.446 0.75685 -0.31433 
6.350 780.0 11.113 27.896 66.628 0.75915 -0.32807 
6.375 780.0 9.939 28.020 66.804 0.76238 -0.32669 
6.400 780.0 8.838 26.927 68.516 0.75142 -0.29574 
6.425 780.0 7.946 27.552 67.966 0.76028 -0.30770 
6.450 780.0 6.976 28.447 66.753 0.76965 -0.33062 
6.475 780.0 6.250 27.950 69.571 0.77599 -0.28903 
6.500 780.0 5.635 28.000 68.534 0.77154 -0.30338 

# MINIMA:
0.600 358.0 0.000 0.000 0.000 0.00000 -0.33782 

# MAXIMA:
6.500 1955.8 83.246 36.913 152.369 0.91032 0.84792 

# PEAKS:

# END SPECTRUM


# SPECTRUM:
5

# START TIME:
16:05:24

# END TIME:
16:15:45

# THETA ANGLE:
0.00 ø

# INCIDENCE ANGLE:
75.00 ø

# ACCUMULATION NUMBER:
1

# ELLIPSOMETRIC CONFIGURATION:
+90.00 øModulator
+45.00 øAnalyser

# INTEGRATION TIME:
500 ms

# FIRST POINT:
0.6000 eV

# LAST POINT:
6.5000 eV

# INCREMENT:
0.0250 eV

# NUMBER OF POINTS:
237

# DATA:
eV Hv S0 Psi Delta Is Ic 
0.600 1098.6 67.377 33.931 141.401 0.57787 0.72392 
0.625 997.0 78.093 33.630 140.500 0.58664 0.71165 
0.650 895.4 71.953 33.153 139.142 0.59903 0.69258 
0.675 895.4 70.215 33.246 138.313 0.60986 0.68481 
0.700 793.8 69.618 33.845 137.396 0.62625 0.68095 
0.725 793.8 79.592 33.589 136.265 0.63720 0.66598 
0.750 692.2 62.075 33.920 135.459 0.64961 0.66010 
0.775 692.2 75.692 33.232 134.189 0.65739 0.63903 
0.800 425.5 63.190 34.491 133.795 0.67380 0.64604 
0.825 622.3 70.925 32.924 132.209 0.67586 0.61303 
0.850 622.3 66.595 33.261 131.432 0.68767 0.60695 
0.875 438.2 61.823 32.945 130.361 0.69551 0.59111 
0.900 539.8 73.324 33.101 129.511 0.70590 0.58212 
0.925 641.4 76.062 33.052 128.747 0.71306 0.57223 
0.950 641.4 63.617 32.832 127.563 0.72225 0.55546 
0.975 463.6 62.310 32.168 126.220 0.72717 0.53260 
1.000 660.4 64.618 32.554 125.619 0.73739 0.52829 
1.025 660.4 65.803 32.671 124.983 0.74461 0.52105 
1.050 463.6 75.335 32.252 123.688 0.75104 0.50064 
1.075 762.0 83.313 32.102 122.830 0.75656 0.48812 
1.100 660.4 63.797 31.828 121.641 0.76294 0.47011 
1.125 660.4 61.741 31.972 120.833 0.77139 0.46044 
1.150 660.4 74.475 31.629 119.848 0.77458 0.44446 
1.175 660.4 77.605 31.748 119.035 0.78243 0.43433 
1.200 762.0 80.538 31.722 118.213 0.78823 0.42287 
1.225 495.3 61.204 31.691 117.370 0.79393 0.41101 
1.250 393.7 78.768 31.436 116.490 0.79655 0.39698 
1.275 590.6 63.520 31.254 115.450 0.80099 0.38119 
1.300 590.6 69.017 31.197 114.804 0.80440 0.37176 
1.325 787.4 79.117 31.027 113.779 0.80839 0.35619 
1.350 489.0 79.854 31.109 113.250 0.81288 0.34923 
1.375 787.4 65.537 30.977 112.294 0.81660 0.33482 
1.400 590.6 71.890 30.906 111.501 0.82006 0.32305 
1.425 1289.1 63.990 30.849 110.828 0.82293 0.31306 
1.450 2190.8 61.704 30.596 109.809 0.82439 0.29694 
1.475 780.0 0.000 0.000 0.000 0.00000 0.00000 
1.500 444.0 59.931 30.384 108.525 0.82744 0.27726 
1.525 546.0 75.548 30.356 107.769 0.83056 0.26617 
1.550 494.0 72.204 30.130 106.946 0.83058 0.25309 
1.575 532.0 67.222 29.984 106.067 0.83193 0.23961 
1.600 532.0 75.356 29.986 105.354 0.83488 0.22925 
1.625 489.0 70.779 29.872 104.738 0.83536 0.21975 
1.650 489.0 63.665 29.783 104.087 0.83629 0.20986 
1.675 489.0 75.080 29.778 103.355 0.83881 0.19913 
1.700 476.0 69.683 29.743 102.781 0.84017 0.19059 
1.725 465.0 67.648 29.591 101.972 0.84013 0.17815 
1.750 465.0 76.073 29.540 101.312 0.84122 0.16828 
1.775 451.0 69.569 29.437 100.684 0.84118 0.15870 
1.800 437.0 69.454 29.300 99.985 0.84062 0.14800 
1.825 437.0 73.818 29.287 99.401 0.84186 0.13938 
1.850 428.0 69.800 29.159 98.666 0.84127 0.12822 
1.875 428.0 75.019 29.114 97.996 0.84189 0.11826 
1.900 418.0 71.333 29.033 97.362 0.84167 0.10875 
1.925 418.0 76.740 28.949 96.829 0.84110 0.10073 
1.950 408.0 70.039 28.884 96.204 0.84094 0.09141 
1.975 408.0 76.057 28.774 95.627 0.83977 0.08274 
2.000 400.0 70.433 28.769 95.008 0.84052 0.07366 
2.025 400.0 72.424 28.697 94.429 0.83988 0.06505 
2.050 400.0 70.662 28.645 93.821 0.83954 0.05607 
2.075 390.0 70.327 28.598 93.201 0.83921 0.04693 
2.100 390.0 74.406 28.522 92.593 0.83823 0.03796 
2.125 390.0 77.090 28.521 91.995 0.83856 0.02921 
2.150 390.0 79.390 28.438 91.400 0.83725 0.02046 
2.175 382.0 70.291 28.366 90.818 0.83603 0.01194 
2.200 382.0 72.291 28.291 90.182 0.83468 0.00264 
2.225 382.0 74.148 28.295 89.556 0.83472 -0.00647 
2.250 382.0 75.861 28.262 88.886 0.83396 -0.01622 
2.275 382.0 77.740 28.229 88.261 0.83309 -0.02529 
2.300 382.0 78.143 28.160 87.576 0.83140 -0.03520 
2.325 375.0 70.123 28.039 86.836 0.82853 -0.04580 
2.350 375.0 70.695 27.972 86.112 0.82657 -0.05617 
2.375 375.0 71.656 27.813 85.409 0.82272 -0.06607 
2.400 375.0 73.276 27.666 84.684 0.81892 -0.07619 
2.425 375.0 76.398 27.389 83.982 0.81241 -0.08564 
2.450 364.0 70.230 27.181 83.404 0.80734 -0.09336 
2.475 364.0 70.042 26.920 82.937 0.80124 -0.09928 
2.500 364.0 62.499 26.471 82.800 0.79173 -0.10001 
2.525 364.0 62.605 26.210 82.689 0.78607 -0.10085 
2.550 364.0 61.527 26.007 82.646 0.78168 -0.10089 
2.575 364.0 64.867 25.839 82.631 0.77805 -0.10062 
2.600 364.0 60.916 25.733 82.632 0.77579 -0.10032 
2.625 364.0 71.954 25.682 82.620 0.77467 -0.10034 
2.650 364.0 74.683 25.631 82.561 0.77345 -0.10098 
2.675 364.0 65.091 25.590 82.583 0.77260 -0.10058 
2.700 364.0 59.280 25.550 82.563 0.77169 -0.10074 
2.725 374.0 67.463 25.597 82.461 0.77254 -0.10224 
2.750 374.0 70.245 25.572 82.279 0.77167 -0.10462 
2.775 374.0 60.899 25.536 82.069 0.77049 -0.10734 
2.800 374.0 59.605 25.516 81.947 0.76982 -0.10891 
2.825 382.0 68.171 25.566 81.693 0.77042 -0.11249 
2.850 382.0 64.600 25.569 81.532 0.77016 -0.11466 
2.875 382.0 62.294 25.558 81.235 0.76932 -0.11861 
2.900 382.0 60.665 25.570 81.048 0.76920 -0.12117 
2.925 382.0 59.372 25.568 80.768 0.76855 -0.12492 
2.950 382.0 58.672 25.571 80.542 0.76812 -0.12797 
2.975 393.0 68.419 25.570 80.169 0.76724 -0.13295 
3.000 393.0 65.906 25.558 79.852 0.76625 -0.13715 
3.025 393.0 63.119 25.525 79.612 0.76494 -0.14023 
3.050 393.0 60.176 25.518 79.378 0.76421 -0.14332 
3.075 403.0 69.834 25.513 79.006 0.76317 -0.14826 
3.100 391.0 70.073 25.486 78.707 0.76179 -0.15212 
3.125 391.0 68.058 25.461 78.375 0.76036 -0.15643 
3.150 391.0 63.759 25.417 78.113 0.75870 -0.15970 
3.175 391.0 59.843 25.361 77.792 0.75657 -0.16369 
3.200 402.0 69.611 25.283 77.462 0.75394 -0.16766 
3.225 402.0 65.891 25.212 77.191 0.75161 -0.17088 
3.250 402.0 62.351 25.090 76.890 0.74804 -0.17421 
3.275 411.0 69.224 24.998 76.526 0.74491 -0.17848 
3.300 411.0 63.734 24.844 76.388 0.74112 -0.17946 
3.325 421.0 68.499 24.707 76.298 0.73781 -0.17989 
3.350 421.0 64.278 24.535 76.257 0.73388 -0.17949 
3.375 421.0 64.054 24.377 76.391 0.73077 -0.17691 
3.400 421.0 63.349 24.257 76.499 0.72843 -0.17489 
3.425 421.0 61.804 24.124 76.704 0.72604 -0.17157 
3.450 421.0 59.949 24.085 77.023 0.72610 -0.16733 
3.475 431.0 68.074 24.066 77.156 0.72606 -0.16554 
3.500 431.0 64.673 24.044 77.430 0.72635 -0.16196 
3.525 431.0 61.772 24.011 77.713 0.72638 -0.15820 
3.550 440.0 69.105 24.012 77.870 0.72682 -0.15622 
3.575 440.0 66.429 24.024 78.127 0.72779 -0.15300 
3.600 440.0 63.899 23.978 78.429 0.72754 -0.14896 
3.625 440.0 61.820 23.993 78.698 0.72857 -0.14561 
3.650 449.0 69.720 23.992 79.063 0.72946 -0.14096 
3.675 449.0 67.910 24.058 79.344 0.73165 -0.13766 
3.700 449.0 66.655 24.102 79.753 0.73363 -0.13262 
3.725 449.0 64.584 24.193 80.123 0.73656 -0.12824 
3.750 449.0 62.975 24.248 80.520 0.73868 -0.12335 
3.775 449.0 60.580 24.362 80.876 0.74203 -0.11917 
3.800 460.0 68.810 24.550 81.227 0.74700 -0.11528 
3.825 460.0 64.908 24.659 81.640 0.75029 -0.11026 
3.850 460.0 60.380 24.804 81.944 0.75411 -0.10674 
3.875 473.0 67.859 25.015 82.299 0.75947 -0.10269 
3.900 473.0 62.514 25.177 82.637 0.76365 -0.09868 
3.925 473.0 57.870 25.420 82.899 0.76944 -0.09585 
3.950 488.0 68.513 25.639 83.139 0.77461 -0.09320 
3.975 488.0 63.687 25.911 83.401 0.78089 -0.09034 
4.000 488.0 59.756 26.163 83.536 0.78648 -0.08911 
4.025 501.0 68.952 26.436 83.799 0.79263 -0.08612 
4.050 501.0 65.532 26.757 83.946 0.79952 -0.08479 
4.075 501.0 61.954 27.030 84.027 0.80524 -0.08425 
4.100 511.0 67.704 27.406 84.151 0.81301 -0.08329 
4.125 511.0 64.383 27.709 84.320 0.81927 -0.08148 
4.150 511.0 61.579 28.133 84.342 0.82757 -0.08198 
4.175 511.0 59.587 28.471 84.296 0.83397 -0.08329 
4.200 511.0 58.384 28.951 84.357 0.84304 -0.08331 
4.225 522.0 67.350 29.393 84.057 0.85065 -0.08854 
4.250 522.0 66.200 30.058 83.794 0.86196 -0.09373 
4.275 522.0 64.160 30.535 83.418 0.86944 -0.10032 
4.300 522.0 70.920 31.204 82.796 0.87928 -0.11114 
4.325 522.0 75.960 31.789 81.910 0.88663 -0.12604 
4.350 511.0 67.942 32.249 80.772 0.89089 -0.14474 
4.375 511.0 71.468 32.646 79.736 0.89391 -0.16187 
4.400 511.0 74.213 32.948 78.564 0.89469 -0.18099 
4.425 511.0 76.924 33.076 77.120 0.89161 -0.20388 
4.450 511.0 78.474 33.363 76.150 0.89191 -0.21990 
4.475 511.0 79.914 33.470 74.997 0.88873 -0.23818 
4.500 501.0 70.082 33.514 73.823 0.88424 -0.25651 
4.525 501.0 70.047 33.646 73.039 0.88236 -0.26910 
4.550 501.0 70.230 33.640 71.931 0.87692 -0.28609 
4.575 501.0 70.031 33.628 71.143 0.87274 -0.29807 
4.600 501.0 69.376 33.577 70.304 0.86763 -0.31059 
4.625 501.0 68.393 33.477 69.669 0.86286 -0.31971 
4.650 501.0 66.460 33.446 68.866 0.85790 -0.33163 
4.675 501.0 65.203 33.435 68.505 0.85566 -0.33696 
4.700 501.0 63.357 33.420 67.866 0.85166 -0.34641 
4.725 501.0 62.161 33.289 67.225 0.84605 -0.35522 
4.750 511.0 69.563 33.249 66.758 0.84263 -0.36188 
4.775 511.0 66.784 33.224 66.403 0.84004 -0.36696 
4.800 511.0 64.198 33.261 65.870 0.83707 -0.37496 
4.825 511.0 62.183 33.235 65.358 0.83336 -0.38227 
4.850 511.0 59.444 33.128 64.888 0.82884 -0.38847 
4.875 524.0 68.212 33.246 64.626 0.82854 -0.39295 
4.900 524.0 65.047 33.236 64.078 0.82462 -0.40080 
4.925 524.0 63.105 33.160 63.636 0.82055 -0.40669 
4.950 534.0 69.209 33.181 63.032 0.81649 -0.41544 
4.975 534.0 65.573 33.185 62.810 0.81491 -0.41863 
5.000 534.0 62.289 33.202 62.358 0.81180 -0.42516 
5.025 534.0 59.734 33.166 61.941 0.80823 -0.43082 
5.050 548.0 69.736 33.093 61.520 0.80415 -0.43625 
5.075 548.0 65.455 33.027 61.135 0.80038 -0.44119 
5.100 548.0 61.280 33.056 60.767 0.79789 -0.44653 
5.125 560.0 68.106 33.070 60.446 0.79555 -0.45109 
5.150 560.0 63.558 33.041 60.135 0.79273 -0.45520 
5.175 560.0 59.624 33.116 59.694 0.79012 -0.46181 
5.200 576.0 69.535 33.134 59.215 0.78644 -0.46853 
5.225 576.0 64.436 33.114 58.990 0.78436 -0.47147 
5.250 576.0 59.738 33.059 58.733 0.78158 -0.47459 
5.275 589.0 66.608 33.075 58.332 0.77843 -0.48017 
5.300 589.0 62.486 33.150 57.926 0.77590 -0.48624 
5.325 602.0 69.444 33.011 57.526 0.77083 -0.49058 
5.350 602.0 64.388 33.093 57.327 0.77010 -0.49388 
5.375 602.0 60.040 32.988 56.832 0.76455 -0.49971 
5.400 614.0 65.743 32.996 56.492 0.76167 -0.50429 
5.425 614.0 61.779 32.853 56.198 0.75738 -0.50706 
5.450 627.0 67.557 32.856 55.972 0.75541 -0.51007 
5.475 627.0 63.209 32.845 55.433 0.75045 -0.51706 
5.500 640.0 69.062 32.864 55.363 0.75004 -0.51813 
5.525 640.0 64.295 32.701 55.006 0.74487 -0.52144 
5.550 653.0 69.876 32.947 54.649 0.74449 -0.52813 
5.575 653.0 64.392 32.656 54.471 0.73943 -0.52800 
5.600 653.0 59.394 32.694 54.139 0.73681 -0.53260 
5.625 669.0 65.274 32.682 53.732 0.73287 -0.53771 
5.650 682.0 69.660 32.616 53.412 0.72907 -0.54123 
5.675 682.0 64.439 32.844 52.901 0.72686 -0.54970 
5.700 701.0 71.509 32.709 52.707 0.72345 -0.55098 
5.725 701.0 66.136 32.402 52.586 0.71870 -0.54977 
5.750 701.0 60.597 32.541 52.293 0.71750 -0.55469 
5.775 719.0 65.970 32.319 52.214 0.71413 -0.55366 
5.800 719.0 60.262 32.242 51.730 0.70852 -0.55895 
5.825 744.0 70.543 32.521 51.766 0.71213 -0.56108 
5.850 744.0 63.958 32.075 51.230 0.70165 -0.56354 
5.875 744.0 57.845 32.413 51.076 0.70410 -0.56861 
5.900 774.0 68.751 31.775 50.946 0.69527 -0.56410 
5.925 774.0 61.560 32.207 50.536 0.69632 -0.57326 
5.950 780.0 58.635 32.045 50.562 0.69468 -0.57138 
5.975 780.0 52.043 31.579 50.095 0.68446 -0.57240 
6.000 780.0 47.177 31.906 49.733 0.68472 -0.58000 
6.025 780.0 41.852 31.846 50.359 0.69030 -0.57190 
6.050 780.0 38.105 31.731 49.860 0.68392 -0.57673 
6.075 780.0 34.191 31.423 49.884 0.68045 -0.57333 
6.100 780.0 31.049 31.661 48.863 0.67297 -0.58783 
6.125 780.0 28.024 31.775 49.233 0.67810 -0.58464 
6.150 780.0 25.412 31.954 49.000 0.67779 -0.58920 
6.175 780.0 23.317 30.884 49.546 0.67040 -0.57165 
6.200 780.0 21.596 31.431 49.138 0.67303 -0.58222 
6.225 780.0 19.488 30.997 48.699 0.66328 -0.58273 
6.250 780.0 17.976 30.914 49.511 0.67043 -0.57238 
6.275 780.0 16.332 31.255 49.254 0.67207 -0.57902 
6.300 780.0 14.786 31.077 50.368 0.68098 -0.56399 
6.325 780.0 13.449 31.098 48.973 0.66730 -0.58063 
6.350 780.0 12.140 31.498 48.884 0.67125 -0.58589 
6.375 780.0 10.757 30.583 49.191 0.66305 -0.57251 
6.400 780.0 9.659 31.236 49.799 0.67732 -0.57239 
6.425 780.0 8.706 31.382 49.858 0.67970 -0.57321 
6.450 780.0 7.640 30.607 50.172 0.67307 -0.56134 
6.475 780.0 6.778 30.739 50.604 0.67899 -0.55765 
6.500 780.0 5.998 30.578 51.840 0.68874 -0.54120 

# MINIMA:
0.600 364.0 0.000 0.000 0.000 0.00000 -0.58920 

# MAXIMA:
6.500 2190.8 83.313 34.491 141.401 0.89469 0.72392 

# PEAKS:

# END SPECTRUM

