## SPECTRUM TYPE:
Spectroscopic

## DATE:
1/30/2012

## COMMENTS:

## NUMBER OF SPECTRUM:
5

## ELLIPSOMETRIC CONFIGURATION:
-45.00 øModulator
-45.00 øAnalyser

## UNIT:
eV


# SPECTRUM:
1

# START TIME:
12:30:48

# END TIME:
12:42:10

# THETA ANGLE:
0.00 ø

# INCIDENCE ANGLE:
55.00 ø

# ACCUMULATION NUMBER:
1

# ELLIPSOMETRIC CONFIGURATION:
-45.00 øModulator
-45.00 øAnalyser

# INTEGRATION TIME:
500 ms

# FIRST POINT:
0.6000 eV

# LAST POINT:
6.5000 eV

# INCREMENT:
0.0250 eV

# NUMBER OF POINTS:
237

# DATA:
eV Hv S0 Psi Delta Is Ic 
0.600 1301.8 60.197 41.535 12.468 -0.21431 -0.12066 
0.625 1200.2 71.996 41.331 12.742 -0.21876 -0.12772 
0.650 1098.6 68.001 41.336 13.193 -0.22636 -0.12755 
0.675 1098.6 65.172 40.939 13.421 -0.22978 -0.14128 
0.700 997.0 63.169 41.058 13.930 -0.23846 -0.13717 
0.725 997.0 73.627 40.966 14.304 -0.24462 -0.14034 
0.750 997.0 75.344 40.817 14.547 -0.24850 -0.14550 
0.775 895.4 71.131 40.911 14.974 -0.25575 -0.14226 
0.800 596.9 67.173 40.696 15.287 -0.26068 -0.14967 
0.825 793.8 64.505 40.488 15.613 -0.26581 -0.15685 
0.850 793.8 60.196 40.486 15.909 -0.27072 -0.15690 
0.875 596.9 65.659 40.557 16.376 -0.27855 -0.15447 
0.900 698.5 69.693 40.411 16.629 -0.28251 -0.15951 
0.925 800.1 68.149 40.295 16.938 -0.28742 -0.16349 
0.950 901.7 77.855 40.031 17.310 -0.29308 -0.17258 
0.975 603.3 66.810 40.085 17.704 -0.29964 -0.17073 
1.000 901.7 76.630 40.029 17.996 -0.30432 -0.17264 
1.025 901.7 79.903 39.894 18.269 -0.30852 -0.17728 
1.050 527.1 62.516 39.742 18.653 -0.31446 -0.18253 
1.075 825.5 63.086 39.677 19.009 -0.32012 -0.18473 
1.100 825.5 70.036 39.674 19.361 -0.32581 -0.18483 
1.125 825.5 70.715 39.521 19.769 -0.33206 -0.19010 
1.150 723.9 64.356 39.368 20.018 -0.33572 -0.19533 
1.175 723.9 68.439 39.338 20.394 -0.34169 -0.19635 
1.200 825.5 71.286 39.255 20.687 -0.34618 -0.19921 
1.225 628.7 81.743 39.134 20.939 -0.34991 -0.20332 
1.250 431.8 83.663 39.087 21.325 -0.35594 -0.20495 
1.275 704.9 81.029 38.958 21.616 -0.36022 -0.20934 
1.300 603.3 61.841 38.801 21.970 -0.36540 -0.21469 
1.325 800.1 70.025 38.755 22.243 -0.36958 -0.21628 
1.350 501.7 72.936 38.610 22.495 -0.37312 -0.22122 
1.375 901.7 78.284 38.521 22.869 -0.37872 -0.22422 
1.400 603.3 66.380 38.461 23.163 -0.38315 -0.22628 
1.425 1403.4 69.702 38.232 23.478 -0.38733 -0.23407 
1.450 2305.1 61.079 38.156 23.795 -0.39200 -0.23663 
1.475 643.0 71.818 38.149 23.978 -0.39482 -0.23689 
1.500 485.0 63.496 37.968 24.222 -0.39798 -0.24301 
1.525 589.0 74.604 37.840 24.428 -0.40070 -0.24734 
1.550 537.0 72.722 37.779 24.724 -0.40504 -0.24940 
1.575 573.0 67.285 37.698 25.039 -0.40956 -0.25215 
1.600 573.0 76.886 37.576 25.289 -0.41292 -0.25624 
1.625 527.0 72.774 37.432 25.477 -0.41522 -0.26111 
1.650 527.0 67.463 37.356 25.730 -0.41877 -0.26365 
1.675 516.0 68.674 37.284 25.984 -0.42232 -0.26611 
1.700 507.0 68.980 37.106 26.262 -0.42578 -0.27209 
1.725 496.0 68.627 37.039 26.472 -0.42866 -0.27432 
1.750 496.0 78.183 36.904 26.716 -0.43174 -0.27884 
1.775 480.0 70.522 36.811 26.965 -0.43504 -0.28198 
1.800 464.0 70.351 36.740 27.160 -0.43764 -0.28436 
1.825 464.0 76.590 36.633 27.388 -0.44053 -0.28792 
1.850 452.0 70.035 36.495 27.591 -0.44289 -0.29253 
1.875 452.0 76.745 36.380 27.834 -0.44593 -0.29636 
1.900 438.0 69.743 36.295 28.045 -0.44862 -0.29920 
1.925 438.0 76.421 36.181 28.248 -0.45103 -0.30300 
1.950 428.0 70.955 36.090 28.426 -0.45319 -0.30601 
1.975 428.0 78.619 36.005 28.592 -0.45518 -0.30885 
2.000 417.0 70.161 35.881 28.815 -0.45778 -0.31297 
2.025 417.0 72.729 35.767 29.016 -0.46007 -0.31675 
2.050 417.0 72.419 35.720 29.189 -0.46232 -0.31831 
2.075 405.0 70.463 35.594 29.444 -0.46531 -0.32248 
2.100 405.0 74.524 35.497 29.621 -0.46731 -0.32567 
2.125 405.0 78.058 35.401 29.875 -0.47041 -0.32885 
2.150 397.0 70.049 35.319 30.011 -0.47187 -0.33154 
2.175 397.0 73.055 35.210 30.214 -0.47414 -0.33511 
2.200 397.0 75.475 35.115 30.474 -0.47725 -0.33825 
2.225 397.0 78.287 34.987 30.710 -0.47982 -0.34244 
2.250 389.0 69.041 34.889 30.929 -0.48229 -0.34566 
2.275 389.0 70.991 34.781 31.159 -0.48484 -0.34920 
2.300 389.0 71.905 34.632 31.446 -0.48790 -0.35407 
2.325 389.0 73.651 34.505 31.599 -0.48920 -0.35822 
2.350 389.0 74.941 34.363 31.863 -0.49192 -0.36282 
2.375 389.0 76.162 34.186 32.050 -0.49329 -0.36859 
2.400 389.0 77.492 34.012 32.219 -0.49442 -0.37423 
2.425 382.0 70.556 33.806 32.276 -0.49375 -0.38088 
2.450 375.0 69.725 33.607 32.385 -0.49380 -0.38730 
2.475 375.0 69.357 33.411 32.338 -0.49174 -0.39358 
2.500 391.0 66.512 33.291 32.129 -0.48802 -0.39743 
2.525 391.0 66.679 33.126 31.935 -0.48416 -0.40272 
2.550 391.0 65.641 33.023 31.776 -0.48124 -0.40599 
2.575 391.0 69.722 32.961 31.604 -0.47845 -0.40799 
2.600 391.0 65.159 32.911 31.412 -0.47547 -0.40958 
2.625 391.0 77.810 32.846 31.360 -0.47429 -0.41163 
2.650 384.0 70.621 32.846 31.294 -0.47338 -0.41163 
2.675 384.0 61.624 32.850 31.248 -0.47279 -0.41151 
2.700 395.0 69.736 32.831 31.247 -0.47262 -0.41213 
2.725 395.0 65.549 32.813 31.217 -0.47209 -0.41269 
2.750 395.0 68.794 32.781 31.282 -0.47273 -0.41372 
2.775 395.0 60.185 32.758 31.308 -0.47291 -0.41443 
2.800 403.0 68.201 32.755 31.335 -0.47325 -0.41455 
2.825 403.0 67.583 32.711 31.367 -0.47336 -0.41592 
2.850 403.0 64.275 32.714 31.446 -0.47445 -0.41585 
2.875 403.0 62.444 32.666 31.531 -0.47523 -0.41737 
2.900 403.0 61.111 32.622 31.589 -0.47568 -0.41876 
2.925 403.0 60.069 32.601 31.667 -0.47658 -0.41942 
2.950 403.0 59.627 32.533 31.735 -0.47697 -0.42156 
2.975 414.0 68.383 32.515 31.796 -0.47764 -0.42216 
3.000 414.0 66.050 32.458 31.819 -0.47751 -0.42396 
3.025 414.0 63.603 32.411 31.879 -0.47796 -0.42542 
3.050 414.0 60.789 32.359 31.928 -0.47819 -0.42707 
3.075 423.0 68.404 32.318 32.036 -0.47932 -0.42836 
3.100 412.0 71.090 32.244 32.025 -0.47858 -0.43071 
3.125 412.0 68.859 32.198 32.074 -0.47887 -0.43216 
3.150 412.0 64.751 32.146 32.071 -0.47841 -0.43377 
3.175 412.0 61.089 32.071 32.066 -0.47774 -0.43615 
3.200 421.0 67.764 32.005 32.061 -0.47715 -0.43820 
3.225 421.0 64.444 31.940 31.965 -0.47533 -0.44025 
3.250 421.0 61.337 31.843 31.898 -0.47365 -0.44329 
3.275 431.0 68.684 31.778 31.736 -0.47097 -0.44534 
3.300 431.0 63.177 31.707 31.526 -0.46760 -0.44753 
3.325 442.0 69.227 31.646 31.279 -0.46381 -0.44945 
3.350 442.0 65.014 31.618 30.908 -0.45863 -0.45031 
3.375 442.0 64.491 31.648 30.584 -0.45453 -0.44938 
3.400 442.0 64.032 31.764 30.291 -0.45151 -0.44575 
3.425 442.0 62.391 31.884 30.026 -0.44887 -0.44199 
3.450 442.0 60.533 32.022 29.791 -0.44672 -0.43769 
3.475 452.0 68.710 32.149 29.624 -0.44541 -0.43368 
3.500 452.0 65.670 32.312 29.526 -0.44527 -0.42855 
3.525 452.0 63.026 32.460 29.468 -0.44556 -0.42388 
3.550 452.0 60.183 32.574 29.425 -0.44578 -0.42027 
3.575 462.0 68.531 32.752 29.402 -0.44675 -0.41462 
3.600 462.0 66.334 32.891 29.344 -0.44692 -0.41021 
3.625 462.0 64.759 33.092 29.359 -0.44854 -0.40380 
3.650 462.0 63.200 33.240 29.435 -0.45060 -0.39907 
3.675 462.0 62.181 33.463 29.412 -0.45180 -0.39193 
3.700 462.0 61.302 33.645 29.578 -0.45534 -0.38608 
3.725 462.0 60.470 33.877 29.704 -0.45863 -0.37858 
3.750 471.0 68.269 34.105 29.859 -0.46230 -0.37119 
3.775 471.0 66.609 34.320 30.028 -0.46606 -0.36423 
3.800 471.0 63.604 34.551 30.245 -0.47056 -0.35672 
3.825 471.0 60.795 34.754 30.540 -0.47598 -0.35008 
3.850 483.0 68.730 34.930 30.938 -0.48267 -0.34431 
3.875 483.0 63.897 35.148 31.225 -0.48805 -0.33715 
3.900 494.0 70.005 35.363 31.687 -0.49583 -0.33009 
3.925 494.0 65.398 35.581 32.095 -0.50286 -0.32291 
3.950 494.0 62.108 35.774 32.628 -0.51147 -0.31651 
3.975 505.0 69.246 35.911 33.087 -0.51867 -0.31197 
4.000 505.0 65.400 36.100 33.644 -0.52750 -0.30569 
4.025 505.0 62.308 36.260 34.215 -0.53633 -0.30037 
4.050 505.0 59.822 36.352 34.836 -0.54540 -0.29731 
4.075 517.0 68.270 36.525 35.376 -0.55379 -0.29155 
4.100 517.0 65.094 36.639 35.999 -0.56291 -0.28772 
4.125 517.0 62.214 36.766 36.703 -0.57315 -0.28348 
4.150 517.0 60.010 36.812 37.317 -0.58164 -0.28193 
4.175 517.0 58.698 36.869 38.127 -0.59271 -0.28002 
4.200 529.0 68.750 36.956 38.836 -0.60253 -0.27711 
4.225 529.0 67.725 36.936 39.727 -0.61397 -0.27778 
4.250 529.0 66.709 36.970 40.502 -0.62413 -0.27664 
4.275 529.0 65.072 36.885 41.435 -0.63539 -0.27951 
4.300 529.0 61.736 36.943 42.364 -0.64736 -0.27756 
4.325 529.0 65.831 36.706 42.979 -0.65336 -0.28550 
4.350 529.0 69.655 36.542 43.736 -0.66142 -0.29096 
4.375 529.0 72.854 36.371 44.304 -0.66701 -0.29668 
4.400 529.0 75.222 36.202 44.768 -0.67129 -0.30230 
4.425 529.0 77.160 36.016 45.077 -0.67353 -0.30848 
4.450 529.0 78.573 35.870 45.489 -0.67721 -0.31333 
4.475 519.0 68.646 35.796 45.892 -0.68130 -0.31578 
4.500 519.0 68.903 35.600 46.192 -0.68317 -0.32225 
4.525 519.0 69.393 35.492 46.503 -0.68583 -0.32583 
4.550 519.0 68.339 35.401 46.869 -0.68921 -0.32882 
4.575 519.0 67.982 35.227 47.220 -0.69167 -0.33456 
4.600 519.0 66.047 35.206 47.580 -0.69549 -0.33525 
4.625 519.0 64.388 35.094 47.784 -0.69678 -0.33893 
4.650 519.0 62.772 34.987 48.143 -0.69979 -0.34243 
4.675 530.0 71.944 34.829 48.590 -0.70321 -0.34764 
4.700 530.0 69.079 34.772 48.919 -0.70625 -0.34949 
4.725 530.0 65.978 34.692 49.090 -0.70734 -0.35209 
4.750 530.0 64.385 34.606 49.401 -0.70986 -0.35490 
4.775 530.0 61.490 34.469 49.752 -0.71226 -0.35939 
4.800 544.0 71.513 34.323 50.139 -0.71491 -0.36413 
4.825 544.0 68.001 34.206 50.419 -0.71666 -0.36793 
4.850 544.0 66.092 34.176 50.654 -0.71879 -0.36890 
4.875 544.0 62.410 34.009 50.968 -0.72032 -0.37431 
4.900 557.0 71.660 33.960 51.339 -0.72359 -0.37591 
4.925 557.0 68.961 33.828 51.669 -0.72554 -0.38018 
4.950 557.0 65.861 33.636 52.027 -0.72708 -0.38637 
4.975 557.0 63.116 33.659 52.194 -0.72898 -0.38562 
5.000 570.0 72.321 33.484 52.550 -0.73059 -0.39126 
5.025 570.0 68.368 33.420 52.809 -0.73243 -0.39329 
5.050 570.0 64.492 33.248 53.067 -0.73302 -0.39881 
5.075 570.0 60.632 33.113 53.213 -0.73291 -0.40312 
5.100 584.0 68.651 33.098 53.400 -0.73451 -0.40362 
5.125 584.0 64.238 32.892 53.705 -0.73505 -0.41019 
5.150 584.0 60.405 32.767 53.992 -0.73630 -0.41415 
5.175 599.0 68.015 32.796 54.232 -0.73888 -0.41322 
5.200 599.0 63.431 32.635 54.414 -0.73866 -0.41834 
5.225 612.0 70.060 32.564 54.732 -0.74074 -0.42058 
5.250 612.0 65.665 32.361 54.960 -0.74035 -0.42700 
5.275 612.0 60.862 32.292 55.273 -0.74233 -0.42918 
5.300 625.0 66.285 32.234 55.494 -0.74359 -0.43102 
5.325 625.0 62.578 32.021 55.720 -0.74294 -0.43772 
5.350 640.0 69.998 31.959 55.869 -0.74347 -0.43965 
5.375 640.0 65.245 31.847 56.052 -0.74364 -0.44316 
5.400 640.0 61.224 31.789 56.090 -0.74322 -0.44499 
5.425 658.0 69.929 31.659 56.269 -0.74309 -0.44905 
5.450 658.0 65.390 31.503 56.630 -0.74416 -0.45389 
5.475 658.0 60.728 31.356 56.764 -0.74333 -0.45847 
5.500 673.0 66.860 31.123 57.446 -0.74592 -0.46568 
5.525 673.0 62.610 31.222 57.172 -0.74498 -0.46261 
5.550 686.0 66.011 31.061 57.443 -0.74504 -0.46759 
5.575 686.0 61.161 30.856 57.533 -0.74294 -0.47391 
5.600 686.0 56.452 30.740 57.937 -0.74463 -0.47746 
5.625 709.0 66.093 30.613 57.643 -0.74043 -0.48135 
5.650 709.0 60.674 30.525 58.081 -0.74273 -0.48405 
5.675 728.0 67.825 30.437 57.936 -0.74029 -0.48674 
5.700 728.0 61.359 30.189 58.115 -0.73813 -0.49428 
5.725 744.0 66.325 30.077 58.198 -0.73715 -0.49766 
5.750 744.0 60.314 29.971 58.317 -0.73653 -0.50086 
5.775 766.0 67.395 29.927 58.590 -0.73804 -0.50219 
5.800 766.0 60.511 29.544 58.765 -0.73360 -0.51371 
5.825 780.0 62.555 29.647 58.497 -0.73307 -0.51064 
5.850 780.0 56.174 29.734 58.256 -0.73250 -0.50801 
5.875 780.0 50.487 29.324 57.680 -0.72169 -0.52029 
5.900 780.0 44.885 29.410 58.148 -0.72671 -0.51774 
5.925 780.0 40.451 29.098 59.376 -0.73132 -0.52703 
5.950 780.0 35.266 28.937 59.607 -0.73049 -0.53180 
5.975 780.0 31.984 29.313 57.936 -0.72354 -0.52063 
6.000 780.0 28.651 28.924 59.020 -0.72586 -0.53218 
6.025 780.0 25.606 28.723 58.557 -0.71911 -0.53811 
6.050 780.0 22.896 28.465 59.886 -0.72490 -0.54566 
6.075 780.0 20.639 28.961 58.268 -0.72067 -0.53106 
6.100 780.0 18.639 28.433 58.574 -0.71456 -0.54661 
6.125 780.0 16.711 28.745 58.235 -0.71698 -0.53744 
6.150 780.0 15.225 28.214 57.469 -0.70247 -0.55297 
6.175 780.0 13.847 28.423 57.621 -0.70703 -0.54690 
6.200 780.0 12.568 28.395 58.848 -0.71602 -0.54771 
6.225 780.0 11.490 28.657 57.521 -0.71000 -0.54003 
6.250 780.0 10.625 28.247 58.601 -0.71173 -0.55201 
6.275 780.0 9.569 27.897 58.873 -0.70795 -0.56218 
6.300 780.0 8.688 28.101 60.338 -0.72212 -0.55625 
6.325 780.0 7.852 28.218 58.285 -0.70883 -0.55288 
6.350 780.0 7.057 28.478 58.939 -0.71806 -0.54529 
6.375 780.0 6.298 28.423 55.482 -0.68982 -0.54688 
6.400 780.0 5.682 29.055 56.098 -0.70472 -0.52829 
6.425 780.0 5.025 29.587 54.789 -0.70161 -0.51243 
6.450 780.0 4.499 29.141 56.604 -0.71019 -0.52575 
6.475 780.0 3.998 29.106 54.915 -0.69556 -0.52678 
6.500 780.0 3.539 29.950 57.163 -0.72692 -0.50150 

# MINIMA:
0.600 375.0 3.539 27.897 12.468 -0.74592 -0.56218 

# MAXIMA:
6.500 2305.1 83.663 41.535 60.338 -0.21431 -0.12066 

# PEAKS:

# END SPECTRUM


# SPECTRUM:
2

# START TIME:
12:42:53

# END TIME:
12:53:15

# THETA ANGLE:
0.00 ø

# INCIDENCE ANGLE:
60.00 ø

# ACCUMULATION NUMBER:
1

# ELLIPSOMETRIC CONFIGURATION:
-45.00 øModulator
-45.00 øAnalyser

# INTEGRATION TIME:
500 ms

# FIRST POINT:
0.6000 eV

# LAST POINT:
6.5000 eV

# INCREMENT:
0.0250 eV

# NUMBER OF POINTS:
237

# DATA:
eV Hv S0 Psi Delta Is Ic 
0.600 1301.8 65.211 40.750 16.094 -0.27416 -0.14781 
0.625 1200.2 75.176 40.331 16.391 -0.27845 -0.16226 
0.650 1098.6 69.453 39.993 16.782 -0.28433 -0.17390 
0.675 1098.6 66.766 40.220 17.323 -0.29363 -0.16607 
0.700 997.0 63.694 40.035 17.834 -0.30166 -0.17244 
0.725 997.0 72.876 39.870 18.223 -0.30772 -0.17812 
0.750 997.0 73.745 39.859 18.719 -0.31577 -0.17849 
0.775 895.4 69.017 39.652 19.101 -0.32155 -0.18561 
0.800 596.9 65.402 39.513 19.571 -0.32885 -0.19038 
0.825 895.4 81.615 39.443 20.010 -0.33577 -0.19277 
0.850 895.4 76.545 39.289 20.353 -0.34091 -0.19805 
0.875 596.9 63.171 39.302 20.884 -0.34945 -0.19758 
0.900 698.5 67.092 39.086 21.284 -0.35528 -0.20497 
0.925 800.1 66.259 38.936 21.659 -0.36085 -0.21010 
0.950 901.7 76.913 38.863 22.122 -0.36797 -0.21258 
0.975 603.3 66.567 38.800 22.590 -0.37517 -0.21474 
1.000 901.7 76.740 38.692 22.979 -0.38097 -0.21840 
1.025 806.5 63.370 38.546 23.465 -0.38812 -0.22338 
1.050 527.1 62.742 38.647 23.920 -0.39554 -0.21994 
1.075 825.5 64.586 38.337 24.315 -0.40067 -0.23049 
1.100 825.5 72.227 38.249 24.728 -0.40674 -0.23347 
1.125 825.5 72.992 38.117 25.191 -0.41341 -0.23794 
1.150 723.9 66.299 38.098 25.684 -0.42089 -0.23859 
1.175 723.9 70.686 37.927 26.025 -0.42546 -0.24438 
1.200 825.5 73.738 37.812 26.532 -0.43272 -0.24828 
1.225 552.5 62.467 37.692 26.928 -0.43822 -0.25234 
1.250 387.4 63.744 37.583 27.259 -0.44275 -0.25601 
1.275 685.8 78.502 37.437 27.740 -0.44933 -0.26095 
1.300 590.6 61.130 37.260 28.094 -0.45383 -0.26690 
1.325 787.4 71.093 37.241 28.441 -0.45889 -0.26755 
1.350 489.0 72.508 37.095 28.866 -0.46451 -0.27243 
1.375 889.0 80.917 36.983 29.168 -0.46841 -0.27622 
1.400 590.6 66.659 36.834 29.594 -0.47392 -0.28121 
1.425 1289.1 62.417 36.790 30.000 -0.47961 -0.28269 
1.450 2190.8 62.806 36.625 30.411 -0.48472 -0.28820 
1.475 780.0 0.000 45.000 0.000 0.00000 0.00000 
1.500 481.0 65.016 36.375 31.074 -0.49293 -0.29653 
1.525 580.0 73.222 36.224 31.320 -0.49561 -0.30158 
1.550 513.0 57.590 36.150 31.704 -0.50066 -0.30404 
1.575 562.0 64.369 36.017 32.050 -0.50478 -0.30847 
1.600 562.0 73.497 35.882 32.434 -0.50939 -0.31292 
1.625 515.0 67.138 35.785 32.719 -0.51280 -0.31614 
1.650 515.0 61.592 35.692 32.989 -0.51599 -0.31923 
1.675 515.0 73.705 35.515 33.386 -0.52039 -0.32506 
1.700 503.0 71.231 35.377 33.757 -0.52462 -0.32963 
1.725 492.0 70.419 35.307 34.038 -0.52801 -0.33194 
1.750 483.0 69.663 35.125 34.349 -0.53105 -0.33791 
1.775 473.0 68.948 35.023 34.591 -0.53363 -0.34127 
1.800 460.0 71.085 34.917 34.923 -0.53738 -0.34475 
1.825 460.0 77.177 34.770 35.203 -0.54011 -0.34954 
1.850 447.0 69.111 34.674 35.560 -0.54418 -0.35270 
1.875 447.0 75.493 34.518 35.868 -0.54714 -0.35779 
1.900 434.0 69.498 34.424 36.084 -0.54929 -0.36085 
1.925 434.0 76.016 34.291 36.398 -0.55241 -0.36518 
1.950 423.0 69.349 34.187 36.595 -0.55419 -0.36854 
1.975 423.0 76.417 34.064 36.912 -0.55735 -0.37255 
2.000 414.0 70.546 33.964 37.168 -0.55988 -0.37577 
2.025 414.0 73.847 33.846 37.474 -0.56287 -0.37959 
2.050 414.0 72.879 33.735 37.749 -0.56548 -0.38317 
2.075 401.0 69.981 33.647 38.008 -0.56805 -0.38600 
2.100 401.0 74.223 33.523 38.349 -0.57132 -0.38999 
2.125 401.0 77.584 33.422 38.571 -0.57326 -0.39324 
2.150 393.0 69.705 33.317 38.847 -0.57580 -0.39660 
2.175 393.0 72.776 33.185 39.078 -0.57752 -0.40084 
2.200 393.0 74.819 33.073 39.474 -0.58143 -0.40440 
2.225 393.0 77.691 32.952 39.766 -0.58392 -0.40826 
2.250 393.0 80.331 32.825 40.134 -0.58723 -0.41232 
2.275 384.0 69.300 32.699 40.439 -0.58976 -0.41630 
2.300 384.0 70.575 32.575 40.741 -0.59222 -0.42023 
2.325 384.0 72.264 32.410 41.115 -0.59508 -0.42548 
2.350 384.0 73.682 32.235 41.370 -0.59639 -0.43098 
2.375 384.0 74.913 32.034 41.760 -0.59896 -0.43730 
2.400 384.0 76.171 31.828 41.969 -0.59928 -0.44375 
2.425 377.0 69.770 31.591 42.109 -0.59842 -0.45117 
2.450 377.0 79.408 31.344 42.255 -0.59747 -0.45884 
2.475 370.0 69.188 31.115 42.283 -0.59530 -0.46594 
2.500 390.0 66.553 30.951 42.009 -0.59037 -0.47099 
2.525 390.0 66.604 30.778 41.815 -0.58625 -0.47629 
2.550 390.0 65.478 30.625 41.629 -0.58241 -0.48099 
2.575 390.0 69.075 30.533 41.493 -0.57984 -0.48379 
2.600 390.0 65.277 30.439 41.274 -0.57626 -0.48668 
2.625 390.0 77.641 30.388 41.218 -0.57506 -0.48821 
2.650 383.0 70.279 30.375 41.124 -0.57384 -0.48861 
2.675 383.0 61.604 30.375 41.070 -0.57321 -0.48862 
2.700 394.0 69.676 30.345 41.121 -0.57346 -0.48954 
2.725 394.0 65.554 30.317 41.080 -0.57267 -0.49039 
2.750 394.0 68.264 30.293 41.175 -0.57349 -0.49112 
2.775 402.0 69.580 30.279 41.237 -0.57404 -0.49154 
2.800 402.0 68.277 30.257 41.305 -0.57458 -0.49220 
2.825 402.0 67.672 30.207 41.368 -0.57472 -0.49374 
2.850 402.0 64.444 30.185 41.480 -0.57575 -0.49439 
2.875 402.0 62.766 30.154 41.544 -0.57612 -0.49534 
2.900 402.0 61.405 30.112 41.672 -0.57709 -0.49662 
2.925 402.0 60.312 30.096 41.776 -0.57807 -0.49711 
2.950 402.0 59.939 30.025 41.867 -0.57828 -0.49924 
2.975 412.0 68.052 29.967 42.045 -0.57961 -0.50099 
3.000 412.0 65.873 29.909 42.113 -0.57968 -0.50276 
3.025 412.0 63.232 29.866 42.227 -0.58044 -0.50405 
3.050 412.0 60.519 29.809 42.249 -0.58002 -0.50578 
3.075 423.0 70.686 29.729 42.410 -0.58086 -0.50817 
3.100 408.0 68.559 29.689 42.507 -0.58145 -0.50938 
3.125 408.0 66.627 29.598 42.555 -0.58089 -0.51210 
3.150 408.0 62.935 29.533 42.611 -0.58073 -0.51404 
3.175 417.0 69.750 29.438 42.676 -0.58028 -0.51689 
3.200 417.0 65.706 29.360 42.703 -0.57962 -0.51921 
3.225 417.0 63.116 29.270 42.675 -0.57821 -0.52189 
3.250 417.0 59.751 29.163 42.656 -0.57667 -0.52509 
3.275 429.0 69.399 29.032 42.507 -0.57342 -0.52896 
3.300 429.0 63.892 28.919 42.387 -0.57068 -0.53233 
3.325 439.0 68.745 28.821 42.139 -0.56675 -0.53520 
3.350 439.0 64.941 28.755 41.718 -0.56131 -0.53717 
3.375 439.0 64.349 28.727 41.403 -0.55749 -0.53799 
3.400 439.0 64.018 28.769 40.973 -0.55324 -0.53675 
3.425 439.0 62.230 28.848 40.667 -0.55081 -0.53440 
3.450 439.0 60.518 28.956 40.297 -0.54795 -0.53122 
3.475 449.0 68.601 29.071 40.162 -0.54779 -0.52783 
3.500 449.0 65.685 29.174 39.879 -0.54579 -0.52476 
3.525 449.0 62.861 29.306 39.782 -0.54623 -0.52084 
3.550 449.0 60.502 29.416 39.628 -0.54574 -0.51754 
3.575 459.0 68.629 29.546 39.485 -0.54558 -0.51366 
3.600 459.0 66.799 29.698 39.361 -0.54587 -0.50910 
3.625 459.0 65.071 29.863 39.265 -0.54659 -0.50413 
3.650 459.0 63.607 30.023 39.198 -0.54758 -0.49932 
3.675 459.0 62.748 30.258 39.062 -0.54855 -0.49219 
3.700 459.0 61.547 30.465 39.096 -0.55118 -0.48587 
3.725 459.0 60.495 30.636 39.149 -0.55363 -0.48064 
3.750 469.0 69.394 30.864 39.198 -0.55661 -0.47365 
3.775 469.0 67.621 31.102 39.248 -0.55967 -0.46633 
3.800 469.0 64.566 31.376 39.316 -0.56329 -0.45785 
3.825 469.0 61.335 31.617 39.468 -0.56754 -0.45034 
3.850 480.0 68.596 31.875 39.671 -0.57254 -0.44228 
3.875 480.0 63.635 32.105 39.919 -0.57779 -0.43507 
3.900 490.0 68.632 32.350 40.309 -0.58486 -0.42737 
3.925 490.0 64.135 32.667 40.607 -0.59147 -0.41733 
3.950 490.0 60.287 32.913 40.964 -0.59810 -0.40950 
3.975 502.0 68.355 33.184 41.403 -0.60588 -0.40087 
4.000 502.0 64.790 33.424 41.768 -0.61246 -0.39319 
4.025 502.0 61.852 33.649 42.272 -0.62054 -0.38595 
4.050 514.0 70.730 33.842 42.887 -0.62958 -0.37971 
4.075 514.0 67.703 34.092 43.411 -0.63800 -0.37164 
4.100 514.0 64.598 34.306 44.045 -0.64735 -0.36468 
4.125 514.0 61.662 34.543 44.692 -0.65696 -0.35696 
4.150 514.0 59.391 34.761 45.416 -0.66721 -0.34983 
4.175 525.0 67.923 34.950 46.229 -0.67813 -0.34365 
4.200 525.0 67.164 35.184 46.951 -0.68828 -0.33599 
4.225 525.0 66.606 35.364 47.844 -0.69978 -0.33006 
4.250 525.0 66.104 35.530 48.819 -0.71189 -0.32458 
4.275 525.0 64.627 35.622 49.894 -0.72423 -0.32155 
4.300 525.0 59.947 35.649 51.232 -0.73852 -0.32065 
4.325 525.0 64.555 35.662 52.351 -0.75008 -0.32021 
4.350 525.0 69.062 35.610 53.459 -0.76065 -0.32195 
4.375 525.0 72.589 35.392 54.352 -0.76734 -0.32912 
4.400 525.0 75.509 35.195 55.130 -0.77287 -0.33561 
4.425 525.0 78.369 35.052 55.797 -0.77769 -0.34031 
4.450 515.0 69.300 34.929 56.402 -0.78201 -0.34433 
4.475 515.0 70.653 34.719 57.016 -0.78538 -0.35122 
4.500 515.0 71.530 34.580 57.449 -0.78776 -0.35577 
4.525 515.0 72.152 34.353 57.968 -0.78988 -0.36316 
4.550 515.0 71.258 34.219 58.444 -0.79250 -0.36752 
4.575 515.0 71.111 34.153 58.924 -0.79581 -0.36966 
4.600 515.0 69.745 33.984 59.238 -0.79655 -0.37512 
4.625 515.0 68.586 33.887 59.688 -0.79914 -0.37826 
4.650 515.0 67.151 33.861 60.089 -0.80211 -0.37909 
4.675 515.0 64.881 33.668 60.556 -0.80359 -0.38532 
4.700 515.0 63.462 33.588 60.824 -0.80477 -0.38789 
4.725 515.0 61.662 33.520 61.179 -0.80672 -0.39009 
4.750 527.0 70.488 33.380 61.519 -0.80766 -0.39458 
4.775 527.0 67.591 33.256 61.906 -0.80908 -0.39856 
4.800 527.0 64.589 33.160 62.482 -0.81219 -0.40164 
4.825 527.0 62.106 33.081 62.744 -0.81312 -0.40417 
4.850 539.0 70.665 32.919 63.088 -0.81359 -0.40932 
4.875 539.0 67.457 32.865 63.527 -0.81602 -0.41105 
4.900 539.0 64.681 32.741 63.995 -0.81772 -0.41498 
4.925 539.0 61.698 32.624 64.326 -0.81847 -0.41870 
4.950 539.0 59.876 32.553 64.677 -0.81992 -0.42095 
4.975 553.0 68.971 32.437 65.009 -0.82061 -0.42461 
5.000 553.0 66.423 32.367 65.403 -0.82227 -0.42683 
5.025 553.0 62.844 32.230 65.729 -0.82253 -0.43113 
5.050 553.0 59.954 32.088 66.038 -0.82256 -0.43560 
5.075 567.0 67.492 32.031 66.267 -0.82322 -0.43739 
5.100 567.0 64.668 31.887 66.612 -0.82335 -0.44192 
5.125 567.0 60.473 31.842 66.875 -0.82435 -0.44331 
5.150 580.0 66.994 31.685 67.566 -0.82627 -0.44821 
5.175 580.0 62.840 31.625 67.658 -0.82595 -0.45009 
5.200 593.0 68.611 31.596 67.971 -0.82735 -0.45102 
5.225 593.0 64.375 31.445 68.320 -0.82717 -0.45570 
5.250 605.0 70.011 31.368 68.825 -0.82889 -0.45809 
5.275 605.0 65.609 31.258 69.144 -0.82901 -0.46151 
5.300 605.0 60.959 31.146 69.384 -0.82863 -0.46497 
5.325 605.0 57.437 31.046 69.511 -0.82780 -0.46806 
5.350 627.0 70.258 30.901 70.036 -0.82836 -0.47252 
5.375 627.0 65.715 30.881 69.897 -0.82732 -0.47313 
5.400 627.0 62.166 30.713 70.235 -0.82646 -0.47830 
5.425 643.0 69.726 30.611 70.491 -0.82617 -0.48143 
5.450 643.0 65.360 30.506 71.003 -0.82707 -0.48464 
5.475 643.0 60.753 30.383 71.313 -0.82662 -0.48839 
5.500 660.0 68.570 30.166 71.543 -0.82421 -0.49499 
5.525 660.0 63.541 30.109 71.765 -0.82434 -0.49669 
5.550 660.0 59.177 30.031 72.169 -0.82493 -0.49907 
5.575 678.0 66.655 29.916 72.182 -0.82309 -0.50253 
5.600 678.0 61.348 29.916 72.026 -0.82237 -0.50253 
5.625 695.0 67.719 29.727 72.721 -0.82235 -0.50824 
5.650 695.0 61.932 29.515 73.061 -0.82023 -0.51460 
5.675 713.0 68.798 29.389 73.816 -0.82127 -0.51837 
5.700 713.0 62.744 29.254 73.496 -0.81758 -0.52239 
5.725 729.0 67.935 29.267 73.398 -0.81738 -0.52201 
5.750 729.0 61.754 29.214 73.165 -0.81546 -0.52358 
5.775 753.0 70.926 28.998 73.723 -0.81402 -0.52998 
5.800 753.0 63.743 28.881 73.222 -0.80984 -0.53343 
5.825 769.0 67.452 28.800 73.505 -0.80958 -0.53582 
5.850 769.0 60.628 28.789 73.965 -0.81128 -0.53614 
5.875 780.0 61.166 28.193 76.921 -0.81119 -0.55358 
5.900 780.0 54.068 28.488 74.146 -0.80655 -0.54498 
5.925 780.0 48.267 28.540 73.169 -0.80347 -0.54347 
5.950 780.0 42.997 27.988 76.269 -0.80511 -0.55955 
5.975 780.0 38.047 28.074 73.927 -0.79802 -0.55704 
6.000 780.0 34.350 27.364 78.374 -0.79967 -0.57746 
6.025 780.0 30.532 27.537 76.212 -0.79626 -0.57253 
6.050 780.0 27.176 27.674 75.820 -0.79755 -0.56859 
6.075 780.0 24.505 27.478 75.896 -0.79403 -0.57421 
6.100 780.0 22.033 27.638 76.274 -0.79844 -0.56961 
6.125 780.0 19.913 27.307 74.201 -0.78446 -0.57909 
6.150 780.0 18.174 27.547 73.500 -0.78631 -0.57224 
6.175 780.0 16.492 27.663 72.578 -0.78467 -0.56891 
6.200 780.0 14.926 27.276 72.682 -0.77772 -0.57995 
6.225 780.0 13.625 27.037 77.722 -0.79125 -0.58674 
6.250 780.0 12.431 27.028 79.282 -0.79547 -0.58699 
6.275 780.0 11.362 27.175 71.923 -0.77248 -0.58284 
6.300 780.0 10.224 27.000 74.672 -0.78024 -0.58779 
6.325 780.0 9.291 27.170 74.204 -0.78180 -0.58299 
6.350 780.0 8.253 27.473 73.105 -0.78328 -0.57434 
6.375 780.0 7.384 27.757 73.316 -0.78956 -0.56621 
6.400 780.0 6.559 27.334 74.851 -0.78746 -0.57832 
6.425 780.0 5.935 27.917 72.576 -0.78944 -0.56160 
6.450 780.0 5.176 27.196 80.044 -0.80078 -0.58224 
6.475 780.0 4.598 27.846 71.996 -0.78557 -0.56364 
6.500 780.0 4.079 27.629 76.955 -0.80051 -0.56989 

# MINIMA:
0.600 370.0 0.000 27.000 0.000 -0.82901 -0.58779 

# MAXIMA:
6.500 2190.8 81.615 45.000 80.044 0.00000 0.00000 

# PEAKS:

# END SPECTRUM


# SPECTRUM:
3

# START TIME:
12:53:58

# END TIME:
13:04:20

# THETA ANGLE:
0.00 ø

# INCIDENCE ANGLE:
65.00 ø

# ACCUMULATION NUMBER:
1

# ELLIPSOMETRIC CONFIGURATION:
-45.00 øModulator
-45.00 øAnalyser

# INTEGRATION TIME:
500 ms

# FIRST POINT:
0.6000 eV

# LAST POINT:
6.5000 eV

# INCREMENT:
0.0250 eV

# NUMBER OF POINTS:
237

# DATA:
eV Hv S0 Psi Delta Is Ic 
0.600 1301.8 66.147 38.953 20.503 -0.34248 -0.20952 
0.625 1200.2 76.127 39.153 21.219 -0.35442 -0.20268 
0.650 1098.6 71.261 38.774 21.733 -0.36158 -0.21563 
0.675 1098.6 67.365 38.622 22.226 -0.36892 -0.22081 
0.700 997.0 64.376 38.474 22.857 -0.37840 -0.22582 
0.725 997.0 73.752 38.349 23.506 -0.38815 -0.23007 
0.750 997.0 74.338 38.302 24.108 -0.39734 -0.23167 
0.775 895.4 68.955 38.125 24.607 -0.40446 -0.23770 
0.800 603.3 66.746 38.024 25.211 -0.41338 -0.24110 
0.825 901.7 79.932 37.921 25.850 -0.42278 -0.24459 
0.850 901.7 74.760 37.961 26.464 -0.43226 -0.24325 
0.875 603.3 64.661 37.778 26.946 -0.43884 -0.24942 
0.900 704.9 66.198 37.615 27.481 -0.44621 -0.25495 
0.925 806.5 64.794 37.443 28.023 -0.45357 -0.26074 
0.950 908.1 75.034 37.418 28.655 -0.46284 -0.26158 
0.975 609.6 63.795 37.234 29.247 -0.47074 -0.26777 
1.000 908.1 75.614 37.048 29.731 -0.47694 -0.27403 
1.025 908.1 79.704 36.984 30.299 -0.48490 -0.27616 
1.050 533.4 61.217 36.835 30.857 -0.49221 -0.28117 
1.075 831.9 64.240 36.786 31.375 -0.49938 -0.28280 
1.100 831.9 71.586 36.677 31.959 -0.50712 -0.28647 
1.125 831.9 73.193 36.472 32.578 -0.51477 -0.29331 
1.150 730.3 65.717 36.410 33.114 -0.52193 -0.29537 
1.175 730.3 70.553 36.190 33.625 -0.52777 -0.30271 
1.200 831.9 73.960 36.071 34.219 -0.53527 -0.30665 
1.225 635.0 82.633 35.919 34.654 -0.54030 -0.31169 
1.250 387.4 61.805 35.846 35.249 -0.54792 -0.31413 
1.275 685.8 75.192 35.700 35.749 -0.55372 -0.31898 
1.300 603.3 62.067 35.583 36.308 -0.56042 -0.32281 
1.325 800.1 70.781 35.398 36.775 -0.56536 -0.32894 
1.350 501.7 74.396 35.261 37.300 -0.57131 -0.33344 
1.375 901.7 80.338 35.194 37.744 -0.57662 -0.33564 
1.400 603.3 68.233 34.993 38.253 -0.58175 -0.34224 
1.425 1301.8 62.014 34.871 38.749 -0.58719 -0.34625 
1.450 2298.7 63.867 34.719 39.343 -0.59357 -0.35123 
1.475 780.0 0.000 45.000 0.000 0.00000 0.00000 
1.500 480.0 65.502 34.521 40.095 -0.60146 -0.35767 
1.525 580.0 74.713 34.324 40.614 -0.60628 -0.36409 
1.550 526.0 71.174 34.216 40.975 -0.60982 -0.36759 
1.575 563.0 65.653 34.121 41.382 -0.61397 -0.37069 
1.600 563.0 75.076 33.946 41.930 -0.61909 -0.37636 
1.625 518.0 71.722 33.781 42.323 -0.62233 -0.38170 
1.650 518.0 65.547 33.683 42.727 -0.62625 -0.38484 
1.675 518.0 78.529 33.607 43.229 -0.63147 -0.38728 
1.700 501.0 70.135 33.437 43.622 -0.63446 -0.39276 
1.725 490.0 69.053 33.298 44.023 -0.63778 -0.39720 
1.750 490.0 78.239 33.146 44.486 -0.64160 -0.40208 
1.775 473.0 69.794 33.050 44.825 -0.64450 -0.40515 
1.800 457.0 68.657 32.877 45.241 -0.64744 -0.41064 
1.825 457.0 74.496 32.764 45.717 -0.65159 -0.41425 
1.850 447.0 70.254 32.662 46.049 -0.65418 -0.41750 
1.875 447.0 76.246 32.519 46.432 -0.65687 -0.42202 
1.900 434.0 69.773 32.394 46.793 -0.65945 -0.42596 
1.925 434.0 75.576 32.278 47.186 -0.66241 -0.42962 
1.950 424.0 70.356 32.152 47.536 -0.66474 -0.43360 
1.975 424.0 77.488 32.013 47.924 -0.66729 -0.43795 
2.000 414.0 69.796 31.921 48.343 -0.67061 -0.44086 
2.025 414.0 72.720 31.783 48.670 -0.67241 -0.44518 
2.050 414.0 72.079 31.685 49.078 -0.67546 -0.44821 
2.075 402.0 69.920 31.575 49.350 -0.67691 -0.45164 
2.100 402.0 74.470 31.446 49.807 -0.67997 -0.45567 
2.125 402.0 77.872 31.337 50.116 -0.68172 -0.45905 
2.150 394.0 69.879 31.239 50.541 -0.68470 -0.46209 
2.175 394.0 72.358 31.101 50.939 -0.68686 -0.46636 
2.200 394.0 75.127 30.964 51.408 -0.68966 -0.47057 
2.225 394.0 77.776 30.846 51.927 -0.69308 -0.47421 
2.250 386.0 69.617 30.736 52.304 -0.69519 -0.47760 
2.275 386.0 71.568 30.594 52.754 -0.69751 -0.48193 
2.300 386.0 72.773 30.441 53.159 -0.69915 -0.48662 
2.325 386.0 74.602 30.264 53.686 -0.70152 -0.49198 
2.350 386.0 76.356 30.085 54.049 -0.70227 -0.49741 
2.375 386.0 77.610 29.892 54.547 -0.70392 -0.50327 
2.400 386.0 79.280 29.638 54.976 -0.70397 -0.51090 
2.425 377.0 69.637 29.397 55.259 -0.70285 -0.51811 
2.450 370.0 69.453 29.114 55.645 -0.70184 -0.52655 
2.475 370.0 69.300 28.862 55.607 -0.69768 -0.53400 
2.500 394.0 66.998 28.656 55.220 -0.69126 -0.54008 
2.525 394.0 67.099 28.412 55.031 -0.68588 -0.54723 
2.550 394.0 66.054 28.251 54.900 -0.68225 -0.55192 
2.575 394.0 69.912 28.151 54.722 -0.67920 -0.55480 
2.600 394.0 65.463 28.040 54.586 -0.67628 -0.55804 
2.625 394.0 78.147 27.946 54.539 -0.67441 -0.56074 
2.650 386.0 69.840 27.955 54.476 -0.67402 -0.56049 
2.675 386.0 61.205 27.899 54.466 -0.67304 -0.56211 
2.700 397.0 69.366 27.886 54.455 -0.67274 -0.56248 
2.725 397.0 65.256 27.855 54.466 -0.67234 -0.56338 
2.750 397.0 67.972 27.821 54.496 -0.67203 -0.56438 
2.775 405.0 68.937 27.797 54.650 -0.67294 -0.56506 
2.800 405.0 67.890 27.781 54.767 -0.67365 -0.56553 
2.825 405.0 67.037 27.758 54.901 -0.67439 -0.56619 
2.850 405.0 63.750 27.720 55.039 -0.67492 -0.56728 
2.875 405.0 62.209 27.716 55.171 -0.67594 -0.56738 
2.900 405.0 61.129 27.663 55.377 -0.67676 -0.56890 
2.925 405.0 60.132 27.626 55.485 -0.67703 -0.56996 
2.950 405.0 59.878 27.577 55.709 -0.67804 -0.57138 
2.975 415.0 67.876 27.512 55.850 -0.67810 -0.57324 
3.000 415.0 66.057 27.472 56.015 -0.67876 -0.57439 
3.025 415.0 63.667 27.406 56.096 -0.67831 -0.57626 
3.050 415.0 60.875 27.335 56.374 -0.67933 -0.57828 
3.075 415.0 58.279 27.301 56.465 -0.67946 -0.57926 
3.100 415.0 74.361 27.191 56.777 -0.68005 -0.58237 
3.125 415.0 72.166 27.099 56.906 -0.67948 -0.58497 
3.150 415.0 67.972 27.026 57.005 -0.67899 -0.58705 
3.175 415.0 64.064 26.927 57.211 -0.67885 -0.58985 
3.200 415.0 60.750 26.845 57.213 -0.67744 -0.59216 
3.225 424.0 67.988 26.726 57.413 -0.67689 -0.59549 
3.250 424.0 64.828 26.604 57.300 -0.67390 -0.59890 
3.275 424.0 60.515 26.462 57.265 -0.67112 -0.60288 
3.300 436.0 68.806 26.330 57.250 -0.66867 -0.60654 
3.325 436.0 62.204 26.187 57.051 -0.66461 -0.61052 
3.350 445.0 68.204 26.043 56.810 -0.66024 -0.61447 
3.375 445.0 67.845 25.977 56.308 -0.65523 -0.61631 
3.400 445.0 67.305 25.936 56.075 -0.65272 -0.61741 
3.425 445.0 65.962 25.973 55.534 -0.64921 -0.61640 
3.450 445.0 63.730 26.012 55.242 -0.64762 -0.61533 
3.475 445.0 61.216 26.106 54.867 -0.64631 -0.61274 
3.500 455.0 69.193 26.165 54.700 -0.64600 -0.61112 
3.525 455.0 66.171 26.247 54.347 -0.64460 -0.60884 
3.550 455.0 63.516 26.336 54.215 -0.64506 -0.60638 
3.575 455.0 61.263 26.422 53.905 -0.64401 -0.60398 
3.600 455.0 59.479 26.519 53.770 -0.64454 -0.60130 
3.625 466.0 68.990 26.648 53.565 -0.64502 -0.59767 
3.650 466.0 67.471 26.812 53.359 -0.64603 -0.59309 
3.675 466.0 66.140 26.957 53.191 -0.64703 -0.58899 
3.700 466.0 65.396 27.175 52.834 -0.64754 -0.58284 
3.725 466.0 64.107 27.365 52.830 -0.65057 -0.57743 
3.750 466.0 62.608 27.582 52.610 -0.65213 -0.57124 
3.775 466.0 60.767 27.796 52.625 -0.65564 -0.56507 
3.800 477.0 69.664 28.025 52.561 -0.65865 -0.55846 
3.825 477.0 65.871 28.286 52.579 -0.66281 -0.55090 
3.850 477.0 62.163 28.556 52.467 -0.66591 -0.54301 
3.875 489.0 68.681 28.788 52.785 -0.67222 -0.53617 
3.900 489.0 64.109 29.105 52.753 -0.67661 -0.52682 
3.925 489.0 59.546 29.394 53.000 -0.68304 -0.51820 
3.950 502.0 68.837 29.673 53.185 -0.68871 -0.50984 
3.975 502.0 65.081 30.013 53.464 -0.69602 -0.49961 
4.000 502.0 61.404 30.307 53.632 -0.70162 -0.49068 
4.025 513.0 68.804 30.571 54.111 -0.70956 -0.48263 
4.050 513.0 65.600 30.871 54.614 -0.71811 -0.47343 
4.075 513.0 62.841 31.191 55.006 -0.72587 -0.46359 
4.100 513.0 59.729 31.535 55.396 -0.73384 -0.45289 
4.125 524.0 67.124 31.828 55.944 -0.74244 -0.44377 
4.150 524.0 64.625 32.152 56.463 -0.75110 -0.43360 
4.175 524.0 63.305 32.506 57.240 -0.76223 -0.42242 
4.200 524.0 62.483 32.844 57.970 -0.77258 -0.41172 
4.225 524.0 61.999 33.219 58.615 -0.78251 -0.39975 
4.250 524.0 61.242 33.544 59.716 -0.79541 -0.38931 
4.275 524.0 60.082 33.855 60.662 -0.80660 -0.37931 
4.300 539.0 67.507 34.230 62.149 -0.82242 -0.36715 
4.325 539.0 73.551 34.380 63.459 -0.83384 -0.36229 
4.350 539.0 78.827 34.439 64.978 -0.84526 -0.36036 
4.375 526.0 69.625 34.477 66.200 -0.85392 -0.35913 
4.400 526.0 73.744 34.355 67.137 -0.85855 -0.36309 
4.425 526.0 76.574 34.193 68.217 -0.86330 -0.36834 
4.450 516.0 68.587 34.111 69.088 -0.86747 -0.37100 
4.475 516.0 70.648 33.947 70.041 -0.87084 -0.37633 
4.500 516.0 72.199 33.819 70.701 -0.87283 -0.38044 
4.525 516.0 73.056 33.576 71.579 -0.87432 -0.38827 
4.550 516.0 73.049 33.484 72.261 -0.87653 -0.39123 
4.575 516.0 72.935 33.325 72.910 -0.87756 -0.39636 
4.600 516.0 72.482 33.207 73.246 -0.87755 -0.40014 
4.625 516.0 71.368 33.083 73.700 -0.87796 -0.40408 
4.650 516.0 70.453 32.994 74.281 -0.87930 -0.40693 
4.675 516.0 68.449 32.842 75.070 -0.88053 -0.41176 
4.700 516.0 66.535 32.742 75.368 -0.88033 -0.41496 
4.725 516.0 65.167 32.662 75.654 -0.88035 -0.41748 
4.750 516.0 62.564 32.619 75.838 -0.88045 -0.41886 
4.775 516.0 60.448 32.591 76.405 -0.88222 -0.41974 
4.800 529.0 70.872 32.402 77.239 -0.88250 -0.42573 
4.825 529.0 67.110 32.361 77.500 -0.88281 -0.42702 
4.850 529.0 64.215 32.267 77.345 -0.88091 -0.42997 
4.875 529.0 62.614 32.224 78.570 -0.88430 -0.43134 
4.900 529.0 59.582 32.088 79.129 -0.88398 -0.43561 
4.925 542.0 69.016 32.014 79.526 -0.88403 -0.43793 
4.950 542.0 65.691 31.879 79.803 -0.88277 -0.44216 
4.975 542.0 63.675 31.826 80.183 -0.88300 -0.44382 
5.000 554.0 71.843 31.767 80.976 -0.88412 -0.44567 
5.025 554.0 68.386 31.656 81.554 -0.88377 -0.44914 
5.050 554.0 65.320 31.616 81.692 -0.88347 -0.45038 
5.075 554.0 62.171 31.518 81.534 -0.88159 -0.45342 
5.100 567.0 69.344 31.355 82.488 -0.88107 -0.45849 
5.125 567.0 65.261 31.430 82.092 -0.88143 -0.45616 
5.150 567.0 61.316 31.344 82.881 -0.88168 -0.45883 
5.175 582.0 70.254 31.250 83.491 -0.88129 -0.46174 
5.200 582.0 65.001 31.171 83.867 -0.88066 -0.46421 
5.225 582.0 60.918 31.085 84.483 -0.88024 -0.46686 
5.250 582.0 57.459 30.927 86.491 -0.88010 -0.47171 
5.275 601.0 68.323 30.870 85.737 -0.87838 -0.47346 
5.300 601.0 63.793 30.852 86.633 -0.87899 -0.47402 
5.325 613.0 68.872 30.804 85.915 -0.87748 -0.47550 
5.350 613.0 64.676 30.603 87.544 -0.87556 -0.48165 
5.375 613.0 60.595 30.564 85.104 -0.87250 -0.48287 
5.400 627.0 67.920 30.465 86.244 -0.87214 -0.48589 
5.425 627.0 62.941 30.331 88.617 -0.87149 -0.48997 
5.450 627.0 59.254 30.324 87.560 -0.87083 -0.49018 
5.475 643.0 66.673 30.190 90.000 -0.86957 -0.49426 
5.500 643.0 62.058 30.104 89.070 -0.86772 -0.49685 
5.525 660.0 69.468 30.059 90.000 -0.86733 -0.49822 
5.550 660.0 64.689 29.849 90.000 -0.86627 -0.50455 
5.575 660.0 59.926 29.867 87.530 -0.86289 -0.50403 
5.600 680.0 68.838 29.773 90.000 -0.86298 -0.50683 
5.625 680.0 63.159 29.531 90.000 -0.86066 -0.51411 
5.650 693.0 66.790 29.512 88.516 -0.85710 -0.51467 
5.675 693.0 61.690 29.538 88.068 -0.85736 -0.51390 
5.700 713.0 69.364 29.313 90.000 -0.85580 -0.52063 
5.725 713.0 62.519 29.116 90.000 -0.85436 -0.52649 
5.750 730.0 67.900 29.238 90.000 -0.85458 -0.52286 
5.775 730.0 61.651 29.106 88.431 -0.84968 -0.52678 
5.800 747.0 66.457 28.943 86.556 -0.84546 -0.53161 
5.825 761.0 68.388 28.797 90.000 -0.84546 -0.53593 
5.850 761.0 61.796 28.797 90.000 -0.84438 -0.53592 
5.875 780.0 66.246 28.631 90.000 -0.84159 -0.54080 
5.900 780.0 59.604 28.328 86.320 -0.83366 -0.54967 
5.925 780.0 53.224 28.601 84.538 -0.83676 -0.54169 
5.950 780.0 47.166 28.429 86.379 -0.83565 -0.54671 
5.975 780.0 41.979 28.439 79.845 -0.82439 -0.54642 
6.000 780.0 37.973 28.298 87.532 -0.83403 -0.55054 
6.025 780.0 33.442 28.422 81.462 -0.82791 -0.54691 
6.050 780.0 30.624 27.489 90.000 -0.82594 -0.57389 
6.075 780.0 27.535 27.673 90.000 -0.82422 -0.56862 
6.100 780.0 24.643 27.686 90.000 -0.82833 -0.56826 
6.125 780.0 22.121 27.757 84.486 -0.82044 -0.56622 
6.150 780.0 20.203 27.749 86.681 -0.82272 -0.56644 
6.175 780.0 18.353 27.732 85.729 -0.82149 -0.56692 
6.200 780.0 16.758 27.682 83.575 -0.81760 -0.56837 
6.225 780.0 15.058 27.476 83.593 -0.81356 -0.57427 
6.250 780.0 13.882 27.528 90.000 -0.82132 -0.57277 
6.275 780.0 12.694 27.138 90.000 -0.82452 -0.58389 
6.300 780.0 11.566 27.083 90.000 -0.82158 -0.58545 
6.325 780.0 10.259 27.280 90.000 -0.82064 -0.57985 
6.350 780.0 9.221 27.215 90.000 -0.82409 -0.58171 
6.375 780.0 8.331 27.676 90.000 -0.82792 -0.56855 
6.400 780.0 7.340 27.169 90.000 -0.83149 -0.58301 
6.425 780.0 6.602 27.712 90.000 -0.83537 -0.56749 
6.450 780.0 5.852 27.278 90.000 -0.83969 -0.57992 
6.475 780.0 5.174 28.159 90.000 -0.84565 -0.55459 
6.500 780.0 4.520 28.349 90.000 -0.85090 -0.54906 

# MINIMA:
0.600 370.0 0.000 25.936 0.000 -0.88430 -0.61741 

# MAXIMA:
6.500 2298.7 82.633 45.000 90.000 0.00000 0.00000 

# PEAKS:

# END SPECTRUM


# SPECTRUM:
4

# START TIME:
13:05:04

# END TIME:
13:15:28

# THETA ANGLE:
0.00 ø

# INCIDENCE ANGLE:
70.00 ø

# ACCUMULATION NUMBER:
1

# ELLIPSOMETRIC CONFIGURATION:
-45.00 øModulator
-45.00 øAnalyser

# INTEGRATION TIME:
500 ms

# FIRST POINT:
0.6000 eV

# LAST POINT:
6.5000 eV

# INCREMENT:
0.0250 eV

# NUMBER OF POINTS:
237

# DATA:
eV Hv S0 Psi Delta Is Ic 
0.600 1397.0 69.650 37.556 27.443 -0.44539 -0.25692 
0.625 1200.2 70.775 37.491 28.240 -0.45700 -0.25911 
0.650 1098.6 66.619 37.365 29.093 -0.46907 -0.26336 
0.675 1098.6 63.482 37.018 29.664 -0.47582 -0.27503 
0.700 1098.6 78.801 36.854 30.473 -0.48676 -0.28054 
0.725 997.0 71.438 36.624 31.275 -0.49712 -0.28824 
0.750 997.0 72.491 36.357 31.914 -0.50477 -0.29714 
0.775 895.4 68.171 36.445 32.841 -0.51831 -0.29422 
0.800 596.9 64.894 36.229 33.583 -0.52742 -0.30139 
0.825 895.4 78.676 35.962 34.233 -0.53480 -0.31028 
0.850 895.4 72.836 35.806 34.847 -0.54221 -0.31545 
0.875 596.9 61.126 35.835 35.700 -0.55393 -0.31449 
0.900 781.1 81.613 35.589 36.368 -0.56125 -0.32264 
0.925 882.7 77.632 35.530 37.146 -0.57115 -0.32458 
0.950 882.7 67.376 35.389 37.860 -0.57952 -0.32924 
0.975 685.8 79.340 35.228 38.628 -0.58829 -0.33453 
1.000 882.7 66.386 35.050 39.326 -0.59589 -0.34037 
1.025 882.7 69.181 34.998 40.058 -0.60473 -0.34209 
1.050 584.2 70.530 34.817 40.837 -0.61303 -0.34801 
1.075 882.7 67.717 34.654 41.521 -0.62013 -0.35336 
1.100 882.7 75.748 34.574 42.237 -0.62816 -0.35596 
1.125 882.7 76.788 34.486 43.023 -0.63686 -0.35882 
1.150 781.1 71.962 34.290 43.667 -0.64277 -0.36522 
1.175 781.1 77.733 34.133 44.402 -0.64995 -0.37030 
1.200 781.1 59.782 34.031 45.097 -0.65701 -0.37360 
1.225 584.2 64.821 33.870 45.842 -0.66396 -0.37880 
1.250 400.1 63.598 33.776 46.547 -0.67092 -0.38186 
1.275 698.5 73.941 33.507 47.186 -0.67533 -0.39050 
1.300 616.0 61.255 33.507 47.833 -0.68234 -0.39051 
1.325 812.8 70.048 33.255 48.494 -0.68683 -0.39858 
1.350 514.4 73.920 33.186 49.110 -0.69259 -0.40081 
1.375 914.4 79.804 33.085 49.805 -0.69874 -0.40401 
1.400 616.0 67.052 32.885 50.473 -0.70338 -0.41041 
1.425 1416.1 69.946 32.811 51.073 -0.70858 -0.41276 
1.450 2413.0 62.036 32.633 51.863 -0.71438 -0.41841 
1.475 780.0 0.000 45.000 0.000 0.00000 0.00000 
1.500 494.0 73.261 32.395 52.851 -0.72114 -0.42595 
1.525 586.0 73.503 32.205 53.435 -0.72439 -0.43193 
1.550 532.0 71.562 32.142 53.890 -0.72788 -0.43391 
1.575 571.0 66.226 32.057 54.610 -0.73343 -0.43659 
1.600 571.0 76.141 31.823 55.235 -0.73612 -0.44391 
1.625 525.0 72.930 31.783 55.681 -0.73956 -0.44518 
1.650 525.0 67.312 31.624 56.208 -0.74211 -0.45012 
1.675 514.0 69.274 31.473 56.820 -0.74537 -0.45484 
1.700 505.0 70.630 31.339 57.527 -0.74953 -0.45899 
1.725 495.0 70.210 31.226 58.033 -0.75216 -0.46250 
1.750 485.0 68.579 31.113 58.557 -0.75488 -0.46597 
1.775 475.0 68.310 30.994 59.026 -0.75696 -0.46966 
1.800 461.0 69.735 30.867 59.641 -0.75999 -0.47356 
1.825 461.0 75.578 30.727 60.220 -0.76242 -0.47787 
1.850 449.0 69.127 30.632 60.775 -0.76523 -0.48077 
1.875 449.0 75.369 30.515 61.186 -0.76655 -0.48435 
1.900 437.0 70.501 30.391 61.759 -0.76888 -0.48813 
1.925 437.0 77.509 30.273 62.126 -0.76972 -0.49174 
1.950 427.0 71.817 30.185 62.644 -0.77203 -0.49440 
1.975 420.0 69.941 30.061 63.165 -0.77371 -0.49816 
2.000 420.0 76.418 29.931 63.761 -0.77570 -0.50208 
2.025 412.0 68.659 29.840 64.271 -0.77765 -0.50482 
2.050 412.0 68.682 29.747 64.693 -0.77889 -0.50763 
2.075 404.0 71.878 29.652 65.227 -0.78076 -0.51049 
2.100 404.0 76.038 29.520 65.690 -0.78149 -0.51445 
2.125 404.0 79.594 29.435 66.316 -0.78390 -0.51697 
2.150 395.0 70.970 29.354 66.748 -0.78512 -0.51940 
2.175 395.0 73.972 29.232 67.269 -0.78612 -0.52303 
2.200 395.0 76.648 29.116 67.982 -0.78818 -0.52648 
2.225 395.0 79.921 29.019 68.500 -0.78937 -0.52935 
2.250 387.0 70.609 28.906 69.327 -0.79182 -0.53269 
2.275 387.0 73.024 28.803 69.762 -0.79225 -0.53574 
2.300 387.0 74.344 28.665 70.487 -0.79345 -0.53979 
2.325 387.0 76.246 28.527 70.817 -0.79259 -0.54384 
2.350 387.0 78.007 28.333 71.825 -0.79380 -0.54951 
2.375 380.0 69.825 28.175 72.240 -0.79276 -0.55412 
2.400 380.0 71.288 27.935 72.975 -0.79149 -0.56107 
2.425 380.0 74.358 27.680 73.605 -0.78929 -0.56841 
2.450 370.0 70.629 27.407 73.991 -0.78558 -0.57624 
2.475 370.0 70.910 27.103 74.528 -0.78174 -0.58487 
2.500 397.0 68.626 26.901 73.325 -0.77304 -0.59058 
2.525 397.0 68.922 26.644 73.165 -0.76729 -0.59779 
2.550 397.0 67.619 26.454 73.171 -0.76350 -0.60310 
2.575 397.0 71.638 26.280 73.061 -0.75955 -0.60792 
2.600 397.0 66.977 26.184 72.927 -0.75705 -0.61059 
2.625 390.0 70.450 26.103 72.974 -0.75559 -0.61282 
2.650 390.0 73.582 26.049 73.028 -0.75469 -0.61432 
2.675 390.0 64.437 26.032 73.046 -0.75443 -0.61477 
2.700 398.0 69.225 26.008 73.052 -0.75395 -0.61544 
2.725 398.0 64.718 25.966 73.082 -0.75321 -0.61660 
2.750 398.0 67.801 25.933 73.071 -0.75248 -0.61751 
2.775 398.0 59.137 25.947 73.303 -0.75369 -0.61712 
2.800 407.0 69.097 25.898 73.487 -0.75340 -0.61846 
2.825 407.0 68.410 25.878 73.700 -0.75382 -0.61900 
2.850 407.0 64.741 25.866 73.922 -0.75441 -0.61935 
2.875 407.0 63.299 25.864 74.138 -0.75518 -0.61941 
2.900 407.0 62.081 25.832 74.521 -0.75593 -0.62028 
2.925 407.0 61.074 25.794 74.501 -0.75506 -0.62132 
2.950 407.0 61.317 25.745 74.957 -0.75569 -0.62264 
2.975 416.0 68.750 25.732 74.808 -0.75489 -0.62300 
3.000 416.0 66.522 25.677 75.218 -0.75518 -0.62450 
3.025 416.0 64.309 25.648 75.293 -0.75483 -0.62529 
3.050 416.0 61.357 25.606 75.595 -0.75496 -0.62645 
3.075 425.0 69.117 25.537 76.156 -0.75536 -0.62831 
3.100 412.0 70.359 25.456 76.383 -0.75436 -0.63052 
3.125 412.0 68.014 25.396 76.731 -0.75417 -0.63214 
3.150 412.0 64.507 25.324 76.596 -0.75220 -0.63409 
3.175 412.0 60.695 25.262 76.957 -0.75197 -0.63576 
3.200 421.0 68.002 25.171 76.916 -0.74988 -0.63820 
3.225 421.0 64.261 25.084 77.283 -0.74909 -0.64054 
3.250 421.0 61.437 24.935 77.317 -0.74592 -0.64453 
3.275 430.0 68.194 24.793 77.631 -0.74371 -0.64830 
3.300 430.0 62.966 24.637 77.751 -0.74058 -0.65245 
3.325 441.0 68.814 24.442 77.872 -0.73658 -0.65757 
3.350 441.0 64.452 24.279 77.818 -0.73274 -0.66187 
3.375 441.0 64.437 24.172 77.137 -0.72839 -0.66466 
3.400 441.0 64.278 24.072 76.913 -0.72548 -0.66726 
3.425 441.0 62.972 24.036 76.263 -0.72270 -0.66821 
3.450 441.0 60.846 24.025 76.092 -0.72193 -0.66848 
3.475 451.0 69.255 24.011 76.006 -0.72133 -0.66885 
3.500 451.0 66.303 24.063 75.618 -0.72129 -0.66748 
3.525 451.0 63.458 24.064 75.433 -0.72071 -0.66746 
3.550 451.0 60.703 24.139 74.975 -0.72086 -0.66552 
3.575 460.0 67.939 24.152 75.107 -0.72160 -0.66518 
3.600 460.0 66.078 24.218 74.522 -0.72109 -0.66345 
3.625 460.0 63.814 24.294 74.300 -0.72198 -0.66148 
3.650 460.0 62.986 24.395 73.472 -0.72121 -0.65883 
3.675 460.0 61.617 24.469 73.535 -0.72308 -0.65687 
3.700 460.0 60.956 24.634 73.066 -0.72492 -0.65251 
3.725 460.0 59.911 24.775 73.068 -0.72798 -0.64879 
3.750 460.0 58.726 24.938 72.330 -0.72857 -0.64446 
3.775 472.0 69.046 25.064 72.795 -0.73313 -0.64108 
3.800 472.0 65.836 25.310 72.059 -0.73537 -0.63446 
3.825 472.0 62.686 25.539 72.091 -0.74030 -0.62827 
3.850 482.0 69.206 25.773 71.955 -0.74459 -0.62188 
3.875 482.0 63.423 25.992 71.912 -0.74891 -0.61587 
3.900 493.0 69.735 26.260 71.861 -0.75413 -0.60848 
3.925 493.0 64.542 26.570 71.596 -0.75919 -0.59985 
3.950 493.0 60.735 26.886 71.481 -0.76490 -0.59100 
3.975 506.0 69.438 27.159 71.608 -0.77077 -0.58329 
4.000 506.0 65.707 27.461 71.797 -0.77741 -0.57470 
4.025 506.0 62.836 27.769 71.815 -0.78333 -0.56585 
4.050 506.0 59.455 28.153 72.071 -0.79161 -0.55475 
4.075 519.0 69.068 28.454 72.201 -0.79770 -0.54598 
4.100 519.0 65.422 28.824 72.504 -0.80570 -0.53512 
4.125 519.0 62.617 29.247 72.256 -0.81203 -0.52259 
4.150 519.0 60.020 29.611 72.822 -0.82083 -0.51172 
4.175 532.0 70.996 30.084 72.880 -0.82905 -0.49745 
4.200 532.0 69.781 30.451 73.961 -0.83977 -0.48632 
4.225 532.0 69.330 30.962 74.113 -0.84861 -0.47066 
4.250 532.0 68.833 31.440 75.335 -0.86106 -0.45586 
4.275 532.0 67.733 31.914 76.024 -0.87091 -0.44106 
4.300 546.0 69.013 32.648 76.675 -0.88402 -0.41793 
4.325 546.0 75.935 32.986 78.156 -0.89391 -0.40717 
4.350 534.0 69.583 33.271 79.835 -0.90295 -0.39809 
4.375 534.0 74.882 33.387 81.307 -0.90840 -0.39435 
4.400 524.0 69.252 33.537 82.329 -0.91277 -0.38954 
4.425 524.0 72.520 33.584 83.672 -0.91604 -0.38802 
4.450 524.0 75.663 33.635 84.695 -0.91839 -0.38639 
4.475 524.0 79.080 33.547 85.729 -0.91859 -0.38922 
4.500 514.0 70.174 33.478 86.246 -0.91823 -0.39145 
4.525 514.0 72.004 33.333 88.218 -0.91777 -0.39609 
4.550 514.0 72.656 33.256 90.000 -0.91743 -0.39857 
4.575 514.0 72.914 33.132 90.000 -0.91622 -0.40252 
4.600 514.0 72.834 33.027 89.067 -0.91381 -0.40588 
4.625 514.0 72.289 32.926 90.000 -0.91263 -0.40908 
4.650 514.0 71.925 32.807 89.169 -0.91068 -0.41289 
4.675 514.0 70.626 32.688 90.000 -0.90975 -0.41665 
4.700 514.0 69.405 32.640 90.000 -0.90837 -0.41819 
4.725 514.0 67.437 32.563 87.439 -0.90632 -0.42064 
4.750 514.0 65.120 32.531 85.732 -0.90425 -0.42163 
4.775 514.0 62.683 32.493 86.067 -0.90408 -0.42283 
4.800 514.0 61.799 32.435 85.792 -0.90290 -0.42468 
4.825 514.0 58.800 32.339 85.218 -0.90078 -0.42769 
4.850 529.0 70.143 32.313 84.088 -0.89873 -0.42852 
4.875 529.0 68.102 32.249 84.601 -0.89857 -0.43053 
4.900 529.0 65.148 32.232 84.151 -0.89761 -0.43109 
4.925 529.0 62.383 32.130 83.532 -0.89504 -0.43428 
4.950 529.0 59.452 32.055 83.007 -0.89295 -0.43663 
4.975 541.0 68.234 32.027 82.523 -0.89155 -0.43754 
5.000 541.0 65.761 32.007 82.776 -0.89176 -0.43817 
5.025 541.0 62.415 31.959 81.989 -0.88940 -0.43967 
5.050 541.0 59.445 31.960 81.487 -0.88828 -0.43963 
5.075 554.0 66.838 31.854 80.862 -0.88517 -0.44293 
5.100 554.0 64.021 31.750 80.572 -0.88284 -0.44620 
5.125 554.0 60.417 31.758 79.764 -0.88081 -0.44594 
5.150 566.0 66.913 31.683 79.906 -0.88005 -0.44830 
5.175 566.0 62.574 31.632 79.120 -0.87703 -0.44989 
5.200 577.0 68.142 31.586 79.213 -0.87660 -0.45132 
5.225 577.0 63.637 31.563 78.452 -0.87395 -0.45203 
5.250 577.0 59.705 31.515 78.273 -0.87264 -0.45353 
5.275 593.0 67.961 31.477 78.313 -0.87218 -0.45471 
5.300 593.0 63.835 31.433 77.859 -0.87003 -0.45608 
5.325 593.0 60.216 31.340 77.509 -0.86742 -0.45897 
5.350 607.0 67.873 31.389 76.621 -0.86510 -0.45745 
5.375 607.0 63.242 31.309 75.898 -0.86119 -0.45993 
5.400 607.0 59.620 31.230 75.921 -0.86006 -0.46236 
5.425 621.0 66.218 31.146 75.623 -0.85761 -0.46495 
5.450 621.0 61.721 31.086 75.371 -0.85569 -0.46682 
5.475 634.0 67.462 31.001 75.248 -0.85385 -0.46945 
5.500 634.0 62.928 30.995 74.737 -0.85173 -0.46962 
5.525 634.0 58.424 30.988 74.434 -0.85038 -0.46984 
5.550 654.0 68.631 30.896 73.351 -0.84429 -0.47268 
5.575 654.0 64.164 30.831 73.503 -0.84394 -0.47466 
5.600 669.0 69.233 30.850 73.068 -0.84231 -0.47409 
5.625 669.0 63.646 30.755 72.700 -0.83914 -0.47699 
5.650 682.0 67.945 30.622 72.431 -0.83578 -0.48109 
5.675 682.0 62.126 30.589 72.181 -0.83410 -0.48208 
5.700 700.0 68.451 30.464 71.858 -0.83056 -0.48591 
5.725 700.0 62.956 30.284 71.508 -0.82598 -0.49138 
5.750 700.0 57.240 30.408 70.822 -0.82461 -0.48761 
5.775 722.0 65.672 30.273 71.280 -0.82468 -0.49173 
5.800 739.0 69.814 30.282 70.918 -0.82306 -0.49144 
5.825 739.0 63.588 30.157 70.219 -0.81748 -0.49525 
5.850 739.0 57.045 30.234 69.995 -0.81758 -0.49292 
5.875 760.0 63.245 30.083 69.955 -0.81492 -0.49749 
5.900 775.0 65.316 30.042 69.046 -0.80944 -0.49873 
5.925 780.0 61.517 29.816 69.467 -0.80798 -0.50555 
5.950 780.0 54.185 29.774 69.459 -0.80725 -0.50681 
5.975 780.0 48.448 29.561 68.683 -0.79954 -0.51322 
6.000 780.0 43.684 29.639 68.428 -0.79944 -0.51088 
6.025 780.0 38.519 29.497 68.440 -0.79715 -0.51513 
6.050 780.0 34.504 29.958 66.298 -0.79231 -0.50126 
6.075 780.0 31.520 29.450 68.598 -0.79722 -0.51654 
6.100 780.0 28.644 29.433 68.468 -0.79622 -0.51705 
6.125 780.0 25.275 29.291 67.954 -0.79099 -0.52127 
6.150 780.0 23.054 29.515 67.142 -0.79009 -0.51460 
6.175 780.0 20.954 29.166 68.233 -0.79041 -0.52501 
6.200 780.0 18.981 28.959 68.300 -0.78725 -0.53113 
6.225 780.0 17.349 29.014 69.584 -0.79502 -0.52951 
6.250 780.0 15.800 29.032 69.057 -0.79258 -0.52897 
6.275 780.0 14.337 28.931 68.131 -0.78583 -0.53197 
6.300 780.0 12.953 28.873 69.756 -0.79344 -0.53369 
6.325 780.0 11.802 28.971 70.548 -0.79913 -0.53079 
6.350 780.0 10.601 29.082 68.546 -0.79070 -0.52748 
6.375 780.0 9.470 28.939 70.475 -0.79821 -0.53174 
6.400 780.0 8.421 29.337 68.161 -0.79292 -0.51990 
6.425 780.0 7.385 29.244 71.763 -0.80971 -0.52268 
6.450 780.0 6.552 28.908 75.990 -0.82117 -0.53263 
6.475 780.0 5.772 29.500 73.125 -0.82025 -0.51505 
6.500 780.0 5.104 29.215 74.634 -0.82155 -0.52354 

# MINIMA:
0.600 370.0 0.000 24.011 0.000 -0.91859 -0.66885 

# MAXIMA:
6.500 2413.0 81.613 45.000 90.000 0.00000 0.00000 

# PEAKS:

# END SPECTRUM


# SPECTRUM:
5

# START TIME:
13:16:11

# END TIME:
13:26:34

# THETA ANGLE:
0.00 ø

# INCIDENCE ANGLE:
75.00 ø

# ACCUMULATION NUMBER:
1

# ELLIPSOMETRIC CONFIGURATION:
-45.00 øModulator
-45.00 øAnalyser

# INTEGRATION TIME:
500 ms

# FIRST POINT:
0.6000 eV

# LAST POINT:
6.5000 eV

# INCREMENT:
0.0250 eV

# NUMBER OF POINTS:
237

# DATA:
eV Hv S0 Psi Delta Is Ic 
0.600 1498.6 65.981 35.407 38.360 -0.58614 -0.32862 
0.625 1301.8 72.028 35.138 39.090 -0.59354 -0.33750 
0.650 1200.2 70.118 34.630 39.960 -0.60064 -0.35413 
0.675 1200.2 67.224 34.568 41.157 -0.61497 -0.35615 
0.700 1098.6 70.494 34.536 42.442 -0.63033 -0.35718 
0.725 997.0 64.326 34.234 43.431 -0.63950 -0.36702 
0.750 997.0 66.074 34.027 44.332 -0.64817 -0.37374 
0.775 997.0 79.601 34.044 45.474 -0.66143 -0.37319 
0.800 596.9 61.320 33.763 46.447 -0.66970 -0.38226 
0.825 895.4 73.947 33.499 47.370 -0.67725 -0.39075 
0.850 895.4 69.315 33.386 48.290 -0.68601 -0.39439 
0.875 603.3 62.097 33.315 49.306 -0.69600 -0.39667 
0.900 704.9 62.489 33.129 50.452 -0.70583 -0.40263 
0.925 901.7 76.751 33.021 51.231 -0.71250 -0.40608 
0.950 901.7 66.021 32.929 52.267 -0.72170 -0.40900 
0.975 704.9 80.636 32.784 53.306 -0.73004 -0.41361 
1.000 901.7 64.178 32.652 54.224 -0.73710 -0.41781 
1.025 901.7 67.478 32.498 55.207 -0.74425 -0.42270 
1.050 603.3 73.525 32.482 56.145 -0.75242 -0.42320 
1.075 901.7 65.770 32.338 57.075 -0.75872 -0.42774 
1.100 901.7 73.584 32.175 58.034 -0.76476 -0.43288 
1.125 901.7 75.156 32.133 59.049 -0.77254 -0.43421 
1.150 800.1 71.950 32.035 59.993 -0.77879 -0.43727 
1.175 800.1 77.237 31.866 60.870 -0.78332 -0.44257 
1.200 901.7 78.668 31.711 61.921 -0.78906 -0.44743 
1.225 603.3 69.159 31.616 62.600 -0.79268 -0.45037 
1.250 406.4 65.945 31.550 63.585 -0.79870 -0.45242 
1.275 704.9 76.924 31.345 64.514 -0.80207 -0.45881 
1.300 609.6 60.469 31.227 65.395 -0.80614 -0.46245 
1.325 806.5 69.978 31.132 66.331 -0.81065 -0.46539 
1.350 508.0 72.895 31.028 67.011 -0.81325 -0.46861 
1.375 908.1 79.797 30.944 67.879 -0.81710 -0.47121 
1.400 609.6 66.805 30.825 68.904 -0.82107 -0.47487 
1.425 1409.7 67.016 30.738 69.640 -0.82373 -0.47751 
1.450 2508.3 62.438 30.678 70.860 -0.82910 -0.47936 
1.475 780.0 0.000 45.000 0.000 0.00000 0.00000 
1.500 480.0 58.439 30.529 71.666 -0.83069 -0.48392 
1.525 590.0 75.651 30.340 72.387 -0.83103 -0.48968 
1.550 533.0 72.862 30.268 73.062 -0.83289 -0.49188 
1.575 568.0 65.212 30.189 73.935 -0.83536 -0.49428 
1.600 568.0 75.188 30.061 74.943 -0.83732 -0.49816 
1.625 522.0 71.093 30.019 75.225 -0.83771 -0.49942 
1.650 522.0 66.720 29.872 76.146 -0.83866 -0.50386 
1.675 513.0 70.709 29.887 76.775 -0.84113 -0.50342 
1.700 502.0 69.617 29.735 77.686 -0.84154 -0.50800 
1.725 491.0 69.652 29.643 78.424 -0.84224 -0.51075 
1.750 491.0 79.690 29.522 79.433 -0.84302 -0.51438 
1.775 474.0 71.009 29.441 80.055 -0.84324 -0.51680 
1.800 458.0 70.666 29.385 80.534 -0.84345 -0.51848 
1.825 458.0 76.941 29.275 81.502 -0.84373 -0.52176 
1.850 445.0 69.836 29.207 81.945 -0.84345 -0.52378 
1.875 445.0 76.080 29.124 82.932 -0.84388 -0.52623 
1.900 431.0 68.840 29.054 83.759 -0.84400 -0.52833 
1.925 431.0 75.547 28.976 84.284 -0.84339 -0.53062 
1.950 420.0 69.147 28.897 85.271 -0.84325 -0.53297 
1.975 420.0 76.862 28.821 86.065 -0.84274 -0.53520 
2.000 410.0 69.540 28.741 87.851 -0.84264 -0.53755 
2.025 410.0 72.208 28.680 87.519 -0.84129 -0.53936 
2.050 410.0 71.933 28.658 90.000 -0.84206 -0.54000 
2.075 398.0 69.962 28.604 90.000 -0.84151 -0.54158 
2.100 398.0 74.742 28.524 90.000 -0.84135 -0.54392 
2.125 398.0 78.500 28.490 90.000 -0.84115 -0.54494 
2.150 389.0 69.044 28.436 90.000 -0.84017 -0.54651 
2.175 389.0 72.050 28.359 90.000 -0.83968 -0.54875 
2.200 389.0 74.729 28.316 90.000 -0.83806 -0.55000 
2.225 389.0 77.526 28.247 90.000 -0.83814 -0.55202 
2.250 381.0 69.167 28.214 90.000 -0.83682 -0.55299 
2.275 381.0 71.036 28.152 90.000 -0.83609 -0.55478 
2.300 381.0 72.517 28.070 90.000 -0.83443 -0.55718 
2.325 381.0 75.003 27.963 90.000 -0.83195 -0.56026 
2.350 381.0 76.654 27.856 90.000 -0.82962 -0.56335 
2.375 381.0 78.281 27.725 90.000 -0.82581 -0.56714 
2.400 374.0 70.656 27.559 90.000 -0.82223 -0.57188 
2.425 374.0 73.951 27.361 87.890 -0.81581 -0.57754 
2.450 364.0 70.433 27.121 87.795 -0.81089 -0.58437 
2.475 364.0 69.942 26.874 85.986 -0.80444 -0.59134 
2.500 390.0 66.535 26.666 82.835 -0.79584 -0.59719 
2.525 390.0 66.623 26.420 82.373 -0.78991 -0.60404 
2.550 390.0 65.611 26.215 82.515 -0.78585 -0.60973 
2.575 390.0 69.192 26.061 82.502 -0.78256 -0.61399 
2.600 390.0 64.643 25.938 82.575 -0.78007 -0.61737 
2.625 390.0 77.601 25.821 83.101 -0.77848 -0.62057 
2.650 383.0 70.587 25.802 83.097 -0.77806 -0.62109 
2.675 383.0 61.786 25.765 83.362 -0.77769 -0.62210 
2.700 392.0 67.359 25.747 82.932 -0.77660 -0.62260 
2.725 392.0 63.124 25.733 82.600 -0.77573 -0.62298 
2.750 392.0 66.219 25.722 82.129 -0.77463 -0.62328 
2.775 402.0 69.657 25.721 82.499 -0.77529 -0.62331 
2.800 402.0 68.486 25.715 82.295 -0.77480 -0.62346 
2.825 402.0 68.287 25.737 82.175 -0.77504 -0.62287 
2.850 402.0 65.162 25.715 81.921 -0.77410 -0.62346 
2.875 402.0 63.219 25.734 81.683 -0.77404 -0.62294 
2.900 402.0 62.245 25.726 81.678 -0.77386 -0.62316 
2.925 402.0 61.560 25.740 81.053 -0.77287 -0.62279 
2.950 402.0 61.262 25.726 81.134 -0.77274 -0.62317 
2.975 411.0 68.516 25.742 80.317 -0.77128 -0.62275 
3.000 411.0 66.526 25.711 80.188 -0.77033 -0.62357 
3.025 411.0 64.254 25.696 79.719 -0.76888 -0.62400 
3.050 411.0 61.675 25.693 79.603 -0.76854 -0.62407 
3.075 420.0 70.039 25.653 79.605 -0.76769 -0.62515 
3.100 406.0 69.856 25.638 79.083 -0.76604 -0.62557 
3.125 406.0 68.273 25.593 78.984 -0.76483 -0.62679 
3.150 406.0 64.165 25.562 78.304 -0.76233 -0.62765 
3.175 406.0 61.024 25.521 78.067 -0.76081 -0.62875 
3.200 406.0 58.248 25.466 77.408 -0.75772 -0.63025 
3.225 418.0 68.806 25.388 77.571 -0.75653 -0.63235 
3.250 418.0 65.717 25.290 77.097 -0.75300 -0.63501 
3.275 418.0 61.708 25.174 76.812 -0.74963 -0.63812 
3.300 429.0 69.256 25.039 77.018 -0.74732 -0.64174 
3.325 429.0 62.674 24.865 76.774 -0.74276 -0.64640 
3.350 438.0 68.728 24.686 76.737 -0.73871 -0.65115 
3.375 438.0 68.726 24.541 76.552 -0.73492 -0.65499 
3.400 438.0 67.838 24.406 77.057 -0.73342 -0.65854 
3.425 438.0 66.459 24.334 77.148 -0.73207 -0.66043 
3.450 438.0 64.059 24.256 77.517 -0.73138 -0.66247 
3.475 438.0 62.630 24.194 73.905 -0.71836 -0.66407 
3.500 447.0 67.886 24.226 78.036 -0.73215 -0.66323 
3.525 447.0 64.813 24.180 78.439 -0.73218 -0.66444 
3.550 447.0 62.083 24.189 78.298 -0.73202 -0.66420 
3.575 447.0 59.704 24.151 78.962 -0.73284 -0.66521 
3.600 458.0 69.236 24.188 78.516 -0.73255 -0.66425 
3.625 458.0 67.369 24.166 79.360 -0.73417 -0.66481 
3.650 458.0 65.506 24.195 79.238 -0.73454 -0.66405 
3.675 458.0 63.852 24.256 79.860 -0.73738 -0.66248 
3.700 458.0 62.963 24.308 80.168 -0.73927 -0.66111 
3.725 458.0 61.465 24.388 80.683 -0.74222 -0.65900 
3.750 458.0 60.055 24.494 81.047 -0.74538 -0.65621 
3.775 468.0 67.405 24.585 81.936 -0.74918 -0.65381 
3.800 468.0 64.264 24.715 82.264 -0.75270 -0.65038 
3.825 468.0 60.782 24.894 82.157 -0.75651 -0.64562 
3.850 481.0 69.808 24.991 83.993 -0.76163 -0.64303 
3.875 481.0 64.139 25.236 83.047 -0.76565 -0.63644 
3.900 481.0 59.046 25.437 83.263 -0.77041 -0.63102 
3.925 495.0 68.461 25.649 83.997 -0.77612 -0.62528 
3.950 495.0 63.979 25.910 84.750 -0.78277 -0.61813 
3.975 495.0 60.169 26.150 84.278 -0.78727 -0.61154 
4.000 508.0 68.931 26.418 84.762 -0.79358 -0.60411 
4.025 508.0 65.776 26.706 84.167 -0.79878 -0.59606 
4.050 508.0 62.552 26.982 85.002 -0.80558 -0.58829 
4.075 508.0 59.704 27.297 85.440 -0.81248 -0.57937 
4.100 520.0 67.385 27.621 87.197 -0.82058 -0.57012 
4.125 520.0 64.278 27.975 85.846 -0.82638 -0.55991 
4.150 520.0 61.902 28.362 86.717 -0.83467 -0.54866 
4.175 520.0 60.353 28.854 83.959 -0.84064 -0.53425 
4.200 520.0 59.738 29.276 85.218 -0.85015 -0.52172 
4.225 531.0 69.232 29.800 85.101 -0.85937 -0.50603 
4.250 531.0 68.236 30.329 84.458 -0.86763 -0.49002 
4.275 531.0 67.028 30.895 84.810 -0.87762 -0.47269 
4.300 545.0 68.321 31.652 82.150 -0.88504 -0.44925 
4.325 545.0 75.141 32.269 81.666 -0.89333 -0.42993 
4.350 532.0 67.806 32.643 81.214 -0.89775 -0.41808 
4.375 532.0 73.362 33.037 80.163 -0.90063 -0.40556 
4.400 532.0 78.099 33.343 78.611 -0.90026 -0.39578 
4.425 519.0 68.286 33.639 77.361 -0.90004 -0.38627 
4.450 519.0 71.230 33.704 76.123 -0.89631 -0.38418 
4.475 519.0 73.913 33.852 75.053 -0.89393 -0.37938 
4.500 519.0 76.794 33.969 73.876 -0.89032 -0.37561 
4.525 519.0 79.542 33.957 72.831 -0.88533 -0.37598 
4.550 510.0 69.799 33.918 71.940 -0.88048 -0.37727 
4.575 510.0 71.422 33.924 71.144 -0.87648 -0.37707 
4.600 510.0 71.078 33.809 70.126 -0.86959 -0.38078 
4.625 510.0 71.031 33.759 69.466 -0.86530 -0.38238 
4.650 510.0 69.557 33.717 68.942 -0.86176 -0.38376 
4.675 510.0 68.889 33.658 68.480 -0.85833 -0.38565 
4.700 510.0 67.452 33.576 67.976 -0.85430 -0.38827 
4.725 510.0 65.729 33.593 67.303 -0.85038 -0.38775 
4.750 510.0 63.932 33.552 66.725 -0.84624 -0.38906 
4.775 510.0 63.199 33.550 66.299 -0.84348 -0.38914 
4.800 510.0 60.463 33.522 66.006 -0.84123 -0.39003 
4.825 521.0 69.006 33.477 65.448 -0.83699 -0.39147 
4.850 521.0 65.992 33.512 64.781 -0.83292 -0.39033 
4.875 521.0 63.233 33.418 64.572 -0.83032 -0.39335 
4.900 521.0 62.161 33.386 64.204 -0.82737 -0.39438 
4.925 521.0 60.135 33.349 63.719 -0.82349 -0.39558 
4.950 534.0 69.509 33.347 63.172 -0.81955 -0.39565 
4.975 534.0 67.320 33.405 62.863 -0.81801 -0.39379 
5.000 534.0 64.296 33.387 62.576 -0.81568 -0.39437 
5.025 534.0 61.879 33.364 62.191 -0.81254 -0.39510 
5.050 534.0 59.080 33.311 61.785 -0.80884 -0.39681 
5.075 548.0 67.857 33.309 61.315 -0.80523 -0.39686 
5.100 548.0 64.404 33.299 61.082 -0.80331 -0.39717 
5.125 548.0 60.803 33.311 60.677 -0.80030 -0.39681 
5.150 560.0 67.426 33.352 60.284 -0.79768 -0.39549 
5.175 560.0 63.286 33.286 59.789 -0.79293 -0.39761 
5.200 560.0 59.565 33.277 59.627 -0.79151 -0.39790 
5.225 575.0 68.107 33.139 59.439 -0.78833 -0.40229 
5.250 575.0 64.161 33.257 59.000 -0.78616 -0.39852 
5.275 575.0 59.985 33.276 58.509 -0.78231 -0.39793 
5.300 590.0 68.424 33.195 58.386 -0.78031 -0.40051 
5.325 590.0 65.023 33.160 57.949 -0.77622 -0.40162 
5.350 590.0 60.777 33.079 57.620 -0.77245 -0.40421 
5.375 607.0 70.695 33.210 57.147 -0.76992 -0.40003 
5.400 607.0 66.997 33.208 56.728 -0.76625 -0.40009 
5.425 607.0 62.668 33.146 56.528 -0.76375 -0.40208 
5.450 621.0 69.833 33.111 56.273 -0.76109 -0.40321 
5.475 621.0 65.363 33.048 56.014 -0.75805 -0.40520 
5.500 621.0 60.913 33.050 55.591 -0.75428 -0.40514 
5.525 635.0 66.737 33.025 55.338 -0.75170 -0.40594 
5.550 635.0 62.114 33.053 54.879 -0.74784 -0.40504 
5.575 649.0 67.968 32.887 54.581 -0.74317 -0.41034 
5.600 649.0 63.053 32.972 54.232 -0.74092 -0.40762 
5.625 649.0 57.933 32.882 54.157 -0.73918 -0.41049 
5.650 669.0 66.727 32.882 53.698 -0.73488 -0.41049 
5.675 669.0 61.803 32.747 53.575 -0.73214 -0.41480 
5.700 685.0 67.239 32.703 53.639 -0.73224 -0.41619 
5.725 685.0 61.643 32.820 52.734 -0.72499 -0.41246 
5.750 699.0 65.881 32.747 52.592 -0.72277 -0.41480 
5.775 699.0 59.494 32.749 52.560 -0.72250 -0.41472 
5.800 720.0 67.580 32.612 52.635 -0.72163 -0.41906 
5.825 720.0 61.451 32.603 52.065 -0.71600 -0.41937 
5.850 744.0 69.888 32.666 51.625 -0.71242 -0.41737 
5.875 744.0 63.409 32.569 51.592 -0.71099 -0.42043 
5.900 761.0 67.322 32.278 51.472 -0.70642 -0.42964 
5.925 775.0 68.310 32.437 50.509 -0.69870 -0.42462 
5.950 775.0 61.537 32.528 50.515 -0.69980 -0.42174 
5.975 780.0 56.520 32.313 50.328 -0.69546 -0.42852 
6.000 780.0 50.892 31.973 50.606 -0.69428 -0.43921 
6.025 780.0 45.090 32.136 50.233 -0.69246 -0.43408 
6.050 780.0 41.068 32.116 50.386 -0.69375 -0.43473 
6.075 780.0 36.506 32.421 49.090 -0.68405 -0.42512 
6.100 780.0 33.353 32.191 49.804 -0.68875 -0.43236 
6.125 780.0 29.729 31.882 49.413 -0.68119 -0.44206 
6.150 780.0 27.249 31.887 50.166 -0.68885 -0.44192 
6.175 780.0 24.554 32.383 49.488 -0.68773 -0.42631 
6.200 780.0 22.400 31.843 49.102 -0.67755 -0.44330 
6.225 780.0 20.266 32.040 49.388 -0.68278 -0.43710 
6.250 780.0 18.454 31.798 49.729 -0.68341 -0.44468 
6.275 780.0 16.770 32.117 48.817 -0.67779 -0.43469 
6.300 780.0 15.228 31.964 49.538 -0.68341 -0.43950 
6.325 780.0 13.681 31.650 50.437 -0.68871 -0.44933 
6.350 780.0 12.332 31.694 51.345 -0.69819 -0.44794 
6.375 780.0 10.887 31.903 49.422 -0.68152 -0.44140 
6.400 780.0 9.833 32.050 50.218 -0.69129 -0.43681 
6.425 780.0 8.751 32.012 50.152 -0.69019 -0.43799 
6.450 780.0 7.704 31.731 51.642 -0.70153 -0.44679 
6.475 780.0 6.617 32.355 52.699 -0.71923 -0.42719 
6.500 780.0 5.842 32.296 52.141 -0.71316 -0.42905 

# MINIMA:
0.600 364.0 0.000 24.151 0.000 -0.90063 -0.66521 

# MAXIMA:
6.500 2508.3 80.636 45.000 90.000 0.00000 0.00000 

# PEAKS:

# END SPECTRUM

