## SPECTRUM TYPE:
Spectroscopic

## DATE:
1/30/2012

## COMMENTS:

## NUMBER OF SPECTRUM:
5

## ELLIPSOMETRIC CONFIGURATION:
+45.00 øModulator
+45.00 øAnalyser

## UNIT:
eV


# SPECTRUM:
1

# START TIME:
17:11:24

# END TIME:
17:22:44

# THETA ANGLE:
0.00 ø

# INCIDENCE ANGLE:
55.00 ø

# ACCUMULATION NUMBER:
1

# ELLIPSOMETRIC CONFIGURATION:
+45.00 øModulator
+45.00 øAnalyser

# INTEGRATION TIME:
500 ms

# FIRST POINT:
0.6000 eV

# LAST POINT:
6.5000 eV

# INCREMENT:
0.0250 eV

# NUMBER OF POINTS:
237

# DATA:
eV Hv S0 Psi Delta Is Ic
0.6 1397 66.543 41.25 12.621 0.21664 0.13054 
0.625 1200.2 67.868 41.13 12.949 0.22205 0.13468 
0.65 1200.2 78.698 41.234 13.198 0.22634 0.13108 
0.675 1200.2 76.964 41.008 13.54 0.23185 0.13891 
0.7 1098.6 78.581 40.907 13.888 0.23759 0.14238 
0.725 997 73.44 41.086 14.203 0.24307 0.13619 
0.75 997 76.816 40.918 14.621 0.24987 0.14202 
0.775 895.4 73.36 40.63 14.946 0.25492 0.15195 
0.8 596.9 71.769 40.77 15.18 0.25901 0.14711 
0.825 793.8 69.367 40.65 15.627 0.26627 0.15124 
0.85 793.8 66.705 40.35 16.03 0.27251 0.1616 
0.875 596.9 75.619 40.396 16.318 0.27735 0.16004 
0.9 698.5 80.412 40.391 16.563 0.28139 0.16019 
0.925 800.1 79.72 40.396 16.878 0.2866 0.16 
0.95 800.1 70.742 39.987 17.402 0.29451 0.1741 
0.975 527.1 60.363 39.976 17.799 0.301 0.17446 
1 825.5 76.252 39.87 18.125 0.30612 0.17811 
1.025 730.3 61.002 39.644 18.536 0.31236 0.18587 
1.05 533.4 78.266 39.777 18.741 0.31596 0.18132 
1.075 831.9 80.705 39.618 19.102 0.3215 0.18676 
1.1 730.3 66.496 39.697 19.352 0.3257 0.18405 
1.125 730.3 66.04 39.402 19.813 0.33251 0.19416 
1.15 647.7 60.693 39.484 20.116 0.33757 0.19136 
1.175 647.7 65.34 39.227 20.478 0.34277 0.20016 
1.2 749.3 69.774 39.196 20.776 0.34746 0.20123 
1.225 552.5 72.919 39.088 21.095 0.35228 0.20489 
1.25 368.3 61.309 38.888 21.416 0.35685 0.21174 
1.275 660.4 81.063 38.763 21.834 0.36314 0.21601 
1.3 558.8 60.715 38.739 22.088 0.36708 0.21683 
1.325 755.7 72.099 38.567 22.442 0.37216 0.22266 
1.35 457.2 68.897 38.584 22.622 0.37505 0.22209 
1.375 857.3 81.746 38.385 22.972 0.37993 0.22886 
1.4 558.8 64.212 38.408 23.256 0.38444 0.22806 
1.425 1257.3 61.695 38.158 23.521 0.38775 0.23656 
1.45 2159 64.245 38.137 23.829 0.39247 0.23727 
1.475 616 78.032 38.054 24.004 0.3949 0.24009 
1.5 462 66.95 37.896 24.38 0.40016 0.24544 
1.525 555 73.343 37.792 24.616 0.40342 0.24895 
1.55 506 72.603 37.723 24.776 0.40563 0.2513 
1.575 541 66.791 37.557 25.11 0.41012 0.25689 
1.6 541 76.25 37.505 25.361 0.41374 0.25865 
1.625 498 73.497 37.311 25.659 0.41751 0.26517 
1.65 498 67.579 37.243 25.92 0.42119 0.26748 
1.675 487 68.641 37.16 26.139 0.42416 0.27026 
1.7 487 79.398 37.099 26.346 0.42701 0.27232 
1.725 468 68.579 36.961 26.654 0.43105 0.27696 
1.75 468 77.78 36.833 26.913 0.43437 0.28125 
1.775 452 69.455 36.719 27.109 0.43679 0.28504 
1.8 439 70.733 36.629 27.4 0.4407 0.28806 
1.825 439 76.214 36.474 27.622 0.44326 0.29323 
1.85 428 69.924 36.423 27.806 0.44572 0.29495 
1.875 428 75.583 36.262 28.019 0.44808 0.3003 
1.9 417 70.255 36.203 28.232 0.45091 0.30227 
1.925 417 76.212 36.081 28.44 0.45334 0.30633 
1.95 408 70.979 35.967 28.633 0.45558 0.3101 
1.975 408 77.003 35.895 28.804 0.45769 0.31249 
2 399 69.468 35.781 29.097 0.46132 0.31627 
2.025 399 71.076 35.668 29.28 0.46336 0.32001 
2.05 399 69.771 35.619 29.492 0.46615 0.32163 
2.075 390 70.112 35.518 29.681 0.46829 0.32496 
2.1 390 72.707 35.403 29.874 0.4704 0.32877 
2.125 390 75.401 35.326 30.059 0.4726 0.33132 
2.15 390 77.102 35.201 30.279 0.475 0.33542 
2.175 390 79.02 35.117 30.453 0.47697 0.33816 
2.2 383 70.173 35.028 30.752 0.48066 0.34109 
2.225 383 71.721 34.933 30.937 0.48268 0.34423 
2.25 383 73.232 34.817 31.182 0.48539 0.34801 
2.275 383 74.032 34.715 31.439 0.48833 0.35136 
2.3 383 74.078 34.571 31.665 0.49055 0.35604 
2.325 383 74.876 34.42 31.936 0.49331 0.36097 
2.35 383 75.574 34.301 32.149 0.49544 0.36486 
2.375 383 75.92 34.131 32.343 0.49694 0.37035 
2.4 383 76.204 33.955 32.512 0.49802 0.37607 
2.425 376 69.091 33.748 32.661 0.49857 0.38274 
2.45 376 78.084 33.538 32.729 0.49797 0.38952 
2.475 376 76.997 33.341 32.702 0.49614 0.39583 
2.5 363 69.961 33.14 32.328 0.48958 0.40228 
2.525 363 70.101 32.985 32.194 0.48661 0.40722 
2.55 363 68.91 32.916 31.919 0.48238 0.40942 
2.575 363 72.662 32.892 31.67 0.47882 0.41018 
2.6 363 67.476 32.8 31.657 0.47796 0.41312 
2.625 356 69.685 32.733 31.549 0.47599 0.41522 
2.65 356 71.719 32.726 31.496 0.47522 0.41546 
2.675 356 62.19 32.824 31.355 0.47404 0.41234 
2.7 366 69.463 32.739 31.395 0.47395 0.41504 
2.725 366 64.526 32.738 31.356 0.47341 0.41508 
2.75 366 66.974 32.674 31.455 0.47427 0.41709 
2.775 374 67.931 32.617 31.546 0.47507 0.4189 
2.8 374 66.164 32.666 31.525 0.47515 0.41735 
2.825 374 65.064 32.629 31.582 0.47564 0.41853 
2.85 374 61.471 32.562 31.734 0.47718 0.42065 
2.875 374 59.524 32.542 31.786 0.47772 0.42128 
2.9 383 68.365 32.541 31.805 0.47797 0.42131 
2.925 383 66.672 32.53 31.862 0.47865 0.42168 
2.95 383 66.049 32.457 31.986 0.47974 0.42399 
2.975 383 62.095 32.405 31.997 0.47949 0.42562 
3 383 59.508 32.327 32.124 0.48056 0.42808 
3.025 393 68.416 32.32 32.139 0.48071 0.42832 
3.05 393 65.032 32.244 32.216 0.48113 0.43072 
3.075 393 62.126 32.246 32.23 0.48133 0.43063 
3.1 393 77.94 32.1 32.338 0.4816 0.43522 
3.125 393 74.978 32.093 32.323 0.48134 0.43545 
3.15 393 70.367 32.043 32.353 0.48132 0.43703 
3.175 393 65.791 31.955 32.388 0.48107 0.43978 
3.2 393 61.793 31.87 32.363 0.48003 0.44244 
3.225 402 69.211 31.799 32.331 0.47902 0.44467 
3.25 402 65.663 31.73 32.235 0.47719 0.44681 
3.275 402 61.195 31.663 32.103 0.47489 0.44892 
3.3 413 68.085 31.592 31.87 0.47122 0.45112 
3.325 413 61.086 31.595 31.494 0.46626 0.45103 
3.35 423 68.184 31.507 31.284 0.46274 0.45379 
3.375 423 67.472 31.533 30.911 0.45798 0.45296 
3.4 423 66.401 31.642 30.584 0.45448 0.44958 
3.425 423 64.535 31.782 30.304 0.45182 0.4452 
3.45 423 62.093 31.855 30.14 0.45017 0.44292 
3.475 432 69.146 32.062 29.939 0.44905 0.43641 
3.5 432 65.446 32.218 29.842 0.4489 0.43151 
3.525 432 62.212 32.335 29.807 0.44929 0.42783 
3.55 432 59.267 32.463 29.754 0.44951 0.42379 
3.575 442 67.017 32.663 29.735 0.4507 0.41747 
3.6 442 64.887 32.842 29.647 0.45077 0.41177 
3.625 442 62.487 32.984 29.646 0.45175 0.40726 
3.65 442 60.947 33.198 29.654 0.45337 0.4004 
3.675 442 59.079 33.401 29.704 0.45546 0.39392 
3.7 453 69.357 33.565 29.833 0.45836 0.38863 
3.725 453 67.85 33.778 29.952 0.46146 0.38178 
3.75 453 65.966 33.969 30.177 0.46586 0.3756 
3.775 453 63.731 34.191 30.351 0.46975 0.36841 
3.8 453 60.607 34.431 30.578 0.47448 0.36062 
3.825 464 68.705 34.712 30.797 0.47934 0.35145 
3.85 464 63.934 34.894 31.147 0.48538 0.3455 
3.875 464 58.505 35.122 31.508 0.49185 0.33802 
3.9 480 69.472 35.327 31.987 0.49982 0.33128 
3.925 480 64.705 35.549 32.371 0.50653 0.32395 
3.95 480 60.256 35.749 32.856 0.51449 0.31734 
3.975 494 70.303 35.913 33.323 0.52195 0.31189 
4 494 65.944 36.071 33.921 0.53116 0.30665 
4.025 494 62.472 36.266 34.474 0.53992 0.30019 
4.05 494 59.226 36.327 35.025 0.54784 0.29813 
4.075 507 68.136 36.492 35.617 0.55687 0.29263 
4.1 507 64.28 36.61 36.25 0.56613 0.28871 
4.125 507 60.982 36.716 36.895 0.57542 0.28515 
4.15 507 58.462 36.808 37.582 0.58514 0.28206 
4.175 521 69.856 36.848 38.318 0.59509 0.28074 
4.2 521 68.041 36.928 39.086 0.60563 0.27804 
4.225 521 66.665 36.956 39.967 0.61719 0.2771 
4.25 521 65.063 36.954 40.698 0.62652 0.27719 
4.275 521 62.965 36.936 41.527 0.63687 0.27779 
4.3 506 69.469 36.729 42.36 0.6459 0.28471 
4.325 506 74.356 36.573 43.103 0.65396 0.28992 
4.35 506 78.306 36.467 43.667 0.66006 0.29349 
4.375 495 69.646 36.377 44.104 0.66468 0.29646 
4.4 495 71.977 36.246 44.397 0.66722 0.30083 
4.425 495 74.143 36.042 44.925 0.67194 0.30763 
4.45 495 75.433 35.893 45.313 0.67534 0.31256 
4.475 495 76.062 35.692 45.802 0.67942 0.31922 
4.5 495 76.331 35.739 45.745 0.67915 0.31766 
4.525 495 76.248 35.455 46.426 0.68465 0.32704 
4.55 495 74.894 35.339 46.773 0.6876 0.33089 
4.575 495 74.024 35.284 47.069 0.69047 0.33268 
4.6 495 72.415 35.1 47.418 0.69277 0.33875 
4.625 495 70.303 34.992 47.806 0.69613 0.34228 
4.65 495 68.488 34.908 48.106 0.69867 0.34503 
4.675 495 65.844 34.927 48.325 0.70123 0.34442 
4.7 495 63.242 34.784 48.672 0.70369 0.34911 
4.725 495 60.964 34.799 48.651 0.7036 0.34861 
4.75 507 70.287 34.678 49.138 0.70773 0.35256 
4.775 507 66.576 34.594 49.285 0.7085 0.35531 
4.8 507 63.99 34.48 49.721 0.71204 0.35903 
4.825 507 60.252 34.238 50.238 0.7151 0.3669 
4.85 519 68.371 34.183 50.358 0.7158 0.36867 
4.875 519 64.601 34.161 50.698 0.71909 0.36938 
4.9 519 62.182 34.057 51.025 0.72139 0.37276 
4.925 530 67.766 33.814 51.531 0.72401 0.38063 
4.95 530 65.676 33.722 51.686 0.7246 0.38358 
4.975 530 62.966 33.612 51.964 0.72621 0.38713 
5 530 59.594 33.525 52.127 0.72689 0.38993 
5.025 546 70.6 33.427 52.456 0.72907 0.39307 
5.05 546 67.438 33.443 52.22 0.72691 0.39258 
5.075 546 63.148 33.286 52.791 0.73078 0.3976 
5.1 546 58.792 33.181 52.915 0.7308 0.40097 
5.125 561 66.846 33.119 53.128 0.73216 0.40295 
5.15 561 62.88 33.011 53.327 0.73284 0.40637 
5.175 572 67.104 32.712 54.193 0.73752 0.41591 
5.2 572 62.629 32.777 54.029 0.73677 0.41383 
5.225 586 69.328 32.683 54.347 0.73862 0.41681 
5.25 586 64.521 32.64 54.314 0.73779 0.41819 
5.275 586 59.895 32.405 54.713 0.73864 0.42563 
5.3 604 69.618 32.258 55.235 0.74157 0.43026 
5.325 604 64.517 32.245 55.155 0.74069 0.43067 
5.35 604 59.844 31.963 55.483 0.7401 0.43953 
5.375 619 67.43 32.076 55.331 0.74017 0.436 
5.4 619 62.871 31.817 55.536 0.73871 0.44411 
5.425 632 67.865 31.632 55.95 0.73996 0.44989 
5.45 632 62.968 31.837 55.772 0.74105 0.44349 
5.475 646 68.888 31.464 56.585 0.74324 0.45512 
5.5 646 63.964 31.435 56.371 0.74104 0.456 
5.525 661 69.752 31.142 56.977 0.74225 0.46509 
5.55 661 64.272 30.999 57.137 0.74164 0.46949 
5.575 661 59.033 30.801 57.26 0.73992 0.47559 
5.6 682 68.128 30.998 56.762 0.73847 0.46954 
5.625 682 61.861 30.733 57.187 0.73836 0.47769 
5.65 700 68.359 30.606 57.255 0.73714 0.48156 
5.675 700 62.676 30.659 57.15 0.73701 0.47995 
5.7 719 68.842 30.322 57.453 0.73471 0.49023 
5.725 719 62.489 30.262 57.672 0.73563 0.49205 
5.75 719 56.432 30.262 57.328 0.73281 0.49207 
5.775 746 66.546 30.505 57.323 0.73626 0.48465 
5.8 746 59.727 30.191 57.398 0.73236 0.49421 
5.825 766 65.697 29.759 57.639 0.72795 0.50726 
5.85 780 67.376 29.774 57.219 0.72478 0.50681 
5.875 780 59.876 29.536 57.627 0.72449 0.51396 
5.9 780 53.414 29.326 58.293 0.72657 0.52022 
5.925 780 47.361 29.367 56.917 0.71619 0.51901 
5.95 780 41.972 29.799 56.403 0.71841 0.50608 
5.975 780 36.837 29.372 57.321 0.71954 0.51887 
6 780 33.354 29.569 55.978 0.71147 0.51297 
6.025 780 29.236 29.193 56.415 0.70943 0.52421 
6.05 780 26.142 29.275 55.539 0.70339 0.52175 
6.075 780 23.583 29.307 55.221 0.70118 0.5208 
6.1 780 21.193 29.037 55.357 0.69827 0.52881 
6.125 780 19.001 29.487 53.859 0.69203 0.51543 
6.15 780 17.115 29.208 54.806 0.69616 0.52374 
6.175 780 15.438 29.258 53.505 0.68555 0.52227 
6.2 780 14.116 29.524 53.481 0.68921 0.51433 
6.225 780 12.824 29.393 52.901 0.68214 0.51823 
6.25 780 11.621 29.721 53.029 0.68799 0.5084 
6.275 780 10.62 29.896 52.81 0.68846 0.50314 
6.3 780 9.621 28.681 52.593 0.66891 0.495758 
6.325 780 8.602 30.23 50.237 0.66877 0.49304 
6.35 780 7.812 29.941 51.642 0.67828 0.50177 
6.375 780 6.986 30.386 49.987 0.66839 0.48829 
6.4 780 6.258 29.414 49.721 0.65276 0.51761 
6.425 780 5.603 30.463 49.046 0.66008 0.48593 
6.45 780 4.986 29.632 48.788 0.64661 0.51109 
6.475 780 4.432 31.185 47.565 0.65388 0.46376 
6.5 780 3.913 31.6 47.796 0.66119 0.45087 

# MINIMA:
0.600 356.0 3.913 28.681 12.621 0.21664 0.13054

# MAXIMA:
6.500 2159.0 81.746 41.250 58.293 0.74324 0.53933

# PEAKS:

# END SPECTRUM


# SPECTRUM:
2

# START TIME:
17:23:27

# END TIME:
17:33:57

# THETA ANGLE:
0.00 ø

# INCIDENCE ANGLE:
60.00 ø

# ACCUMULATION NUMBER:
1

# ELLIPSOMETRIC CONFIGURATION:
+45.00 øModulator
+45.00 øAnalyser

# INTEGRATION TIME:
500 ms

# FIRST POINT:
0.6000 eV

# LAST POINT:
6.5000 eV

# INCREMENT:
0.0250 eV

# NUMBER OF POINTS:
237

# DATA:
eV Hv S0 Psi Delta Is Ic
0.6 1301.8 69.122 40.034 16.24 0.27547 0.17249 
0.625 1104.9 66.748 40.191 16.457 0.27932 0.16708 
0.65 1104.9 77.227 39.891 17.005 0.28781 0.1774 
0.675 1104.9 75.541 40.01 17.32 0.2932 0.17329 
0.7 1003.3 73.657 40.067 17.745 0.30027 0.17136 
0.725 901.7 67.847 39.843 18.291 0.30878 0.17904 
0.75 901.7 70.26 39.688 18.682 0.31483 0.18437 
0.775 800.1 64.984 39.48 19.291 0.32426 0.19149 
0.8 520.7 60.488 39.751 19.473 0.32778 0.18219 
0.825 717.6 62.68 39.425 20.041 0.33622 0.19339 
0.85 819.2 79.991 39.289 20.4 0.34167 0.19802 
0.875 520.7 61.129 39.249 20.887 0.34937 0.1994 
0.9 622.3 68.05 39.077 21.313 0.35573 0.20527 
0.925 723.9 68.942 38.972 21.785 0.36294 0.20885 
0.95 723.9 60.553 38.569 22.481 0.37278 0.2226 
0.975 527.1 64.593 38.653 22.771 0.3776 0.21973 
1 723.9 60.874 38.571 23.082 0.38222 0.22255 
1.025 723.9 63.589 38.417 23.614 0.39005 0.22778 
1.05 463.6 60.657 38.337 24.066 0.39681 0.23049 
1.075 762 69.832 38.433 24.338 0.40133 0.22723 
1.1 762 77.631 38.248 24.808 0.40797 0.2335 
1.125 762 77.822 38.066 25.309 0.41504 0.23968 
1.15 660.4 67.556 37.892 25.764 0.42136 0.24558 
1.175 660.4 71.785 37.77 26.195 0.42744 0.24971 
1.2 762 76.622 37.775 26.588 0.43341 0.24954 
1.225 565.2 79.751 37.648 26.976 0.43877 0.25383 
1.25 368.3 65.123 37.554 27.383 0.44448 0.257 
1.275 641.4 79.936 37.336 27.823 0.45014 0.26435 
1.3 552.5 62.506 37.461 28.137 0.45534 0.26012 
1.325 749.3 73.82 37.188 28.547 0.46022 0.26933 
1.35 450.9 71.25 37.14 28.841 0.46434 0.27092 
1.375 831.9 81.325 36.859 29.366 0.47072 0.28036 
1.4 533.4 61.669 36.678 29.879 0.4773 0.28642 
1.425 1231.9 65.284 36.74 30.084 0.48058 0.28436 
1.45 1828.8 60.87 36.515 30.535 0.48594 0.29187 
1.475 780 0 45 0 0.489852 0.295955 
1.5 455 59.978 36.318 31.104 0.49306 0.29845 
1.525 558 75.91 36.236 31.364 0.49631 0.30119 
1.55 506 72.373 36.052 31.826 0.50183 0.3073 
1.575 540 66.463 35.893 32.203 0.50622 0.31258 
1.6 540 76.791 35.818 32.513 0.51012 0.31506 
1.625 494 70.918 35.721 32.796 0.51348 0.31827 
1.65 494 64.59 35.572 33.188 0.518 0.3232 
1.675 494 77.296 35.448 33.48 0.52126 0.32728 
1.7 477 68.82 35.318 33.84 0.52538 0.33158 
1.725 468 70.124 35.172 34.214 0.52953 0.33637 
1.75 468 79.031 35.083 34.473 0.53245 0.33929 
1.775 450 68.858 34.95 34.783 0.53572 0.34365 
1.8 438 70.7 34.816 35.1 0.53905 0.34806 
1.825 438 76.322 34.688 35.44 0.54268 0.35225 
1.85 427 69.987 34.617 35.642 0.54487 0.35456 
1.875 427 76.376 34.473 36.002 0.54857 0.35926 
1.9 416 71.02 34.347 36.274 0.55122 0.36334 
1.925 416 77.249 34.243 36.502 0.55341 0.36671 
1.95 406 70.203 34.132 36.822 0.55672 0.37034 
1.975 406 76.792 34.01 37.079 0.5591 0.37429 
2 397 69.77 33.927 37.371 0.56219 0.37697 
2.025 397 71.602 33.784 37.692 0.56515 0.38158 
2.05 397 70.038 33.701 37.918 0.56735 0.38426 
2.075 388 70.337 33.608 38.189 0.57002 0.38725 
2.1 388 73.604 33.478 38.45 0.57221 0.39145 
2.125 388 75.695 33.365 38.758 0.57511 0.39506 
2.15 388 77.669 33.233 39.075 0.57791 0.39928 
2.175 380 68.352 33.156 39.308 0.58011 0.40176 
2.2 380 69.537 33.048 39.631 0.58313 0.4052 
2.225 380 71.07 32.923 39.959 0.58602 0.40918 
2.25 380 72.611 32.809 40.31 0.58922 0.41282 
2.275 380 73.452 32.694 40.606 0.59172 0.41646 
2.3 380 73.449 32.546 40.996 0.59498 0.42117 
2.325 380 74.19 32.38 41.299 0.59698 0.42642 
2.35 380 74.623 32.206 41.639 0.59926 0.43191 
2.375 380 75.012 32.025 41.884 0.60031 0.43759 
2.4 380 75.773 31.811 42.183 0.60158 0.44428 
2.425 380 78.32 31.556 42.425 0.60168 0.45226 
2.45 369 71.588 31.341 42.519 0.60046 0.45893 
2.475 369 70.511 31.103 42.547 0.59818 0.46629 
2.5 358 69.225 30.936 41.995 0.59004 0.47146 
2.525 358 68.987 30.634 42.036 0.58716 0.4807 
2.55 358 67.827 30.6 41.613 0.58196 0.48174 
2.575 358 71.75 30.5 41.396 0.57835 0.48482 
2.6 358 66.557 30.381 41.436 0.57747 0.48845 
2.625 358 78.523 30.306 41.246 0.57445 0.49072 
2.65 351 70.119 30.329 41.162 0.57376 0.49001 
2.675 351 60.679 30.346 41.128 0.57356 0.4895 
2.7 361 68.155 30.299 41.116 0.57289 0.49094 
2.725 361 63.323 30.222 41.292 0.57403 0.49328 
2.75 361 65.745 30.223 41.267 0.57375 0.49325 
2.775 371 69.349 30.21 41.286 0.57383 0.49364 
2.8 371 67.971 30.186 41.415 0.57502 0.49437 
2.825 371 66.624 30.168 41.474 0.57549 0.4949 
2.85 371 62.78 30.118 41.665 0.57707 0.49643 
2.875 371 60.816 30.1 41.728 0.57757 0.49698 
2.9 379 69.095 30.043 41.853 0.57834 0.4987 
2.925 379 67.144 30.003 41.956 0.57903 0.4999 
2.95 379 66.389 29.969 42.06 0.5798 0.50093 
2.975 379 62.475 29.893 42.184 0.58029 0.50324 
3 387 70.012 29.863 42.258 0.58077 0.50413 
3.025 387 66.489 29.802 42.373 0.58132 0.50598 
3.05 387 62.991 29.761 42.507 0.58232 0.5072 
3.075 387 59.895 29.739 42.545 0.58248 0.50787 
3.1 387 75.338 29.607 42.67 0.58226 0.51184 
3.125 387 72.538 29.499 42.872 0.58317 0.51508 
3.15 387 67.872 29.434 42.906 0.58275 0.51702 
3.175 387 63.593 29.349 43.009 0.58283 0.51954 
3.2 395 69.53 29.291 42.922 0.58116 0.52126 
3.225 395 65.749 29.198 42.924 0.58002 0.52405 
3.25 395 62.321 29.069 42.925 0.57842 0.52787 
3.275 404 68.193 28.92 42.881 0.57606 0.53229 
3.3 404 62.365 28.903 42.549 0.57224 0.5328 
3.325 415 68.511 28.779 42.317 0.56816 0.53645 
3.35 415 63.822 28.609 42.171 0.56443 0.54144 
3.375 415 63.243 28.675 41.667 0.55974 0.53952 
3.4 415 62.424 28.664 41.295 0.55552 0.53983 
3.425 415 60.309 28.803 40.851 0.5523 0.53575 
3.45 425 69.227 28.831 40.68 0.55073 0.53493 
3.475 425 65.89 29.024 40.375 0.54964 0.52921 
3.5 425 62.452 29.136 40.16 0.54854 0.5259 
3.525 434 69.094 29.276 40.063 0.54909 0.52172 
3.55 434 65.715 29.378 39.867 0.54803 0.5187 
3.575 434 62.728 29.525 39.715 0.54799 0.51429 
3.6 443 70.462 29.662 39.59 0.54811 0.51018 
3.625 443 68.07 29.86 39.447 0.54868 0.50423 
3.65 443 66.033 29.96 39.446 0.54978 0.50122 
3.675 443 64.31 30.173 39.368 0.55123 0.49475 
3.7 443 62.721 30.382 39.311 0.55283 0.48841 
3.725 443 61.021 30.613 39.291 0.55506 0.48136 
3.75 443 59.185 30.8 39.449 0.55892 0.47562 
3.775 454 68.459 31.094 39.45 0.56201 0.46656 
3.8 454 65.058 31.33 39.582 0.566 0.45927 
3.825 454 60.99 31.538 39.713 0.56969 0.4528 
3.85 466 68.974 31.803 39.918 0.5748 0.44454 
3.875 466 63.328 32.096 40.092 0.57978 0.43535 
3.9 466 58.026 32.329 40.403 0.58579 0.42802 
3.925 481 68.253 32.635 40.702 0.59232 0.41833 
3.95 481 63.715 32.895 41.087 0.5994 0.41008 
3.975 491 69.241 33.112 41.462 0.60593 0.40315 
4 491 64.861 33.401 41.878 0.61357 0.3939 
4.025 491 61.427 33.664 42.33 0.62136 0.38544 
4.05 502 68.487 33.887 42.901 0.63016 0.37826 
4.075 502 64.909 34.099 43.391 0.63784 0.37139 
4.1 502 61.214 34.303 44.13 0.64831 0.36478 
4.125 515 70.173 34.567 44.751 0.65785 0.35617 
4.15 515 66.683 34.736 45.46 0.6675 0.35066 
4.175 515 64.701 34.981 46.209 0.67817 0.34265 
4.2 515 63.394 35.188 46.979 0.68863 0.33584 
4.225 515 62.071 35.359 47.891 0.70025 0.33021 
4.25 515 61.123 35.541 48.939 0.71328 0.32423 
4.275 515 58.886 35.645 50.031 0.72589 0.32079 
4.3 503 70.406 35.729 50.914 0.7359 0.31801 
4.325 503 75.954 35.704 51.889 0.74575 0.31884 
4.35 494 70.252 35.665 52.798 0.75459 0.32013 
4.375 494 74.422 35.456 53.734 0.76195 0.32701 
4.4 494 77.839 35.18 54.74 0.76904 0.3361 
4.425 485 70.031 34.975 55.372 0.77299 0.34283 
4.45 485 71.424 34.97 55.643 0.77545 0.34301 
4.475 485 73.048 34.787 56.251 0.7792 0.34899 
4.5 485 74.24 34.633 56.851 0.78303 0.35403 
4.525 485 74.489 34.356 57.541 0.7862 0.36307 
4.55 485 73.771 34.345 57.665 0.78716 0.36342 
4.575 485 73.309 34.184 58.132 0.78945 0.36863 
4.6 485 71.547 34.008 58.734 0.79261 0.37436 
4.625 485 69.838 33.961 58.865 0.79319 0.37586 
4.65 485 67.862 33.885 59.173 0.79489 0.37834 
4.675 485 65.817 33.725 59.83 0.79844 0.3835 
4.7 485 63.222 33.627 60.238 0.80058 0.38665 
4.725 495 71.527 33.46 60.548 0.80107 0.39203 
4.75 495 69.109 33.55 60.493 0.8017 0.38912 
4.775 495 65.639 33.483 60.668 0.80229 0.39129 
4.8 495 63.045 33.353 61.354 0.80606 0.39544 
4.825 495 59.284 33.222 61.628 0.80656 0.39965 
4.85 508 69.378 32.965 62.527 0.81007 0.40787 
4.875 508 65.037 32.927 62.967 0.81281 0.40905 
4.9 508 62.357 33.011 62.695 0.8119 0.40638 
4.925 508 59.464 32.889 62.934 0.81208 0.41028 
4.95 520 67.459 32.671 63.759 0.81516 0.4172 
4.975 520 64.281 32.574 64.195 0.81691 0.42029 
5 520 60.8 32.314 64.624 0.81637 0.42849 
5.025 534 70.942 32.533 64.219 0.81653 0.42159 
5.05 534 66.608 32.332 64.899 0.81845 0.42794 
5.075 534 62.66 32.224 65.163 0.81875 0.43132 
5.1 547 69.9 32.12 65.56 0.81992 0.43461 
5.125 547 65.408 32.039 65.916 0.8211 0.43715 
5.15 547 61.102 31.959 65.855 0.81959 0.43965 
5.175 560 67.581 31.8 66.494 0.82139 0.44462 
5.2 560 62.418 31.725 66.558 0.82072 0.44696 
5.225 574 69.668 31.576 67.063 0.82167 0.45162 
5.25 574 65.329 31.443 67.388 0.82168 0.45576 
5.275 586 70.32 31.444 67.562 0.82273 0.45573 
5.3 586 65.288 31.39 67.552 0.82187 0.45742 
5.325 586 60.712 31.145 68.163 0.82178 0.465 
5.35 599 66.299 31.199 68.122 0.82237 0.46332 
5.375 599 62.147 30.821 69.323 0.82331 0.47499 
5.4 612 68.011 30.822 68.759 0.82022 0.47496 
5.425 612 62.77 30.794 68.726 0.81962 0.4758 
5.45 626 69.304 30.601 69.332 0.81993 0.48172 
5.475 626 64.679 30.569 69.309 0.81929 0.4827 
5.5 626 59.369 30.455 69.598 0.81904 0.48618 
5.525 643 67.205 30.473 69.394 0.81824 0.48563 
5.55 655 70.878 30.418 69.341 0.81707 0.48732 
5.575 655 65.092 30.263 69.513 0.81552 0.49202 
5.6 655 59.552 29.974 70.565 0.81624 0.50079 
5.625 680 71.724 29.96 70.072 0.8135 0.50122 
5.65 680 64.851 29.949 70.324 0.81461 0.50155 
5.675 694 69.436 29.647 70.911 0.81252 0.51064 
5.7 694 62.945 29.646 70.58 0.81087 0.51066 
5.725 716 72.021 29.568 70.277 0.80803 0.51301 
5.75 716 65.136 29.255 70.803 0.80531 0.52235 
5.775 716 58.685 29.363 70.755 0.80694 0.51912 
5.8 745 70.709 29.638 69.37 0.80452 0.51089 
5.825 745 63.984 29.229 69.718 0.79941 0.52313 
5.85 763 67.808 28.801 71.182 0.7992 0.53581 
5.875 763 60.177 28.934 70.438 0.79795 0.53186 
5.9 780 63.168 28.946 70.656 0.79924 0.5315 
5.925 780 55.881 28.639 70.713 0.79408 0.54056 
5.95 780 49.424 28.593 70.289 0.79119 0.54192 
5.975 780 43.523 28.197 70.779 0.78643 0.55348 
6 780 38.909 28.097 70.37 0.78264 0.55638 
6.025 780 34.27 28.603 68.769 0.78357 0.555552 
6.05 780 31.069 28.166 69.491 0.77951 0.55438 
6.075 780 27.735 28.102 68.773 0.77464 0.55625 
6.1 780 24.863 27.87 68.646 0.76975 0.56295 
6.125 780 22.019 28.018 67.17 0.76442 0.55866 
6.15 780 19.89 28.222 66.86 0.76631 0.55275 
6.175 780 18.011 29.083 64.682 0.76797 0.52747 
6.2 780 16.202 28.428 65.143 0.75973 0.54675 
6.225 780 14.857 28.561 64.273 0.75658 0.54285 
6.25 780 13.563 28.123 64.829 0.75247 0.55564 
6.275 780 12.2 28.383 63.442 0.74817 0.54807 
6.3 780 11.036 28.89 62.505 0.75045 0.53318 
6.325 780 9.858 28.77 61.725 0.74309 0.53671 
6.35 780 8.995 28.068 62.228 0.73472 0.55722 
6.375 780 7.954 28.669 60.527 0.73293 0.53967 
6.4 780 7.174 29.328 58.308 0.72671 0.52017 
6.425 780 6.417 29.372 58.494 0.72884 0.51887 
6.45 780 5.675 30.203 56.671 0.72652 0.49386 
6.475 780 5.109 29.22 56.762 0.71269 0.5234 
6.5 780 4.551 30.377 56.027 0.7236 0.48855 

# MINIMA:
0.600 351.0 0.000 27.870 0.000 0.00000 0.00000

# MAXIMA:
6.500 1828.8 81.325 45.000 71.182 0.82331 0.56295

# PEAKS:

# END SPECTRUM


# SPECTRUM:
3

# START TIME:
17:34:40

# END TIME:
17:45:08

# THETA ANGLE:
0.00 ø

# INCIDENCE ANGLE:
65.00 ø

# ACCUMULATION NUMBER:
1

# ELLIPSOMETRIC CONFIGURATION:
+45.00 øModulator
+45.00 øAnalyser

# INTEGRATION TIME:
500 ms

# FIRST POINT:
0.6000 eV

# LAST POINT:
6.5000 eV

# INCREMENT:
0.0250 eV

# NUMBER OF POINTS:
237

# DATA:
eV Hv S0 Psi Delta Is Ic
0.6 1301.8 71.475 38.571 21.101 0.35099 0.22255 
0.625 1104.9 69.742 38.957 21.242 0.35428 0.20937 
0.65 1003.3 65.009 38.932 21.809 0.36322 0.21024 
0.675 1003.3 62.818 38.66 22.427 0.37221 0.21949 
0.7 1003.3 78.557 38.373 23.1 0.38189 0.22927 
0.725 901.7 72.545 38.669 23.401 0.38751 0.21921 
0.75 901.7 75.683 38.295 24.212 0.39893 0.23192 
0.775 800.1 70.456 37.845 24.92 0.40828 0.24717 
0.8 501.7 62.332 38.159 25.279 0.41491 0.23653 
0.825 698.5 62.962 37.969 25.883 0.42345 0.24299 
0.85 800.1 80.117 37.864 26.359 0.4303 0.24651 
0.875 501.7 60.635 37.666 27.047 0.4399 0.25323 
0.9 603.3 67.913 37.441 27.718 0.44902 0.2608 
0.925 704.9 68.113 37.403 28.099 0.45454 0.2621 
0.95 806.5 82.035 37.233 28.78 0.46386 0.26781 
0.975 508 61.1 37.136 29.293 0.47096 0.27106 
1 806.5 81.709 37.041 29.754 0.47724 0.27426 
1.025 704.9 62.336 36.824 30.544 0.48764 0.28154 
1.05 508 77.352 36.832 30.81 0.49151 0.28127 
1.075 806.5 81.938 36.689 31.481 0.50039 0.28606 
1.1 704.9 66.525 36.569 32.054 0.5079 0.29008 
1.125 704.9 66.445 36.456 32.658 0.5158 0.29385 
1.15 628.7 61.661 36.119 33.318 0.5231 0.30507 
1.175 628.7 65.848 36.057 33.817 0.52964 0.30712 
1.2 730.3 71.199 35.953 34.375 0.53669 0.31059 
1.225 533.4 70.714 35.948 34.772 0.54208 0.31073 
1.25 355.6 61.283 35.774 35.36 0.54896 0.31651 
1.275 641.4 80.433 35.59 35.89 0.55489 0.32259 
1.3 552.5 63.12 35.434 36.419 0.56089 0.32773 
1.325 749.3 73.74 35.329 36.881 0.56628 0.33119 
1.35 450.9 72.069 35.233 37.306 0.57119 0.33438 
1.375 831.9 81.309 35.015 37.917 0.57756 0.34154 
1.4 533.4 62.281 34.964 38.345 0.58271 0.34321 
1.425 1231.9 64.814 34.841 38.88 0.58864 0.34722 
1.45 1930.4 63.361 34.57 39.517 0.5946 0.3561 
1.475 780 0 45 0 0.597702 0.357893 
1.5 461 66.909 34.488 40.065 0.6008 0.35876 
1.525 556 73.719 34.3 40.668 0.60675 0.36486 
1.55 506 72.129 34.15 40.957 0.60904 0.36974 
1.575 539 65.393 34.023 41.461 0.61409 0.37386 
1.6 539 75.12 33.825 42.097 0.62002 0.38027 
1.625 495 71.976 33.707 42.437 0.62303 0.38407 
1.65 495 65.236 33.586 42.811 0.62635 0.38798 
1.675 495 77.822 33.443 43.307 0.63085 0.39256 
1.7 479 70.305 33.339 43.706 0.6345 0.39589 
1.725 470 70.972 33.173 44.143 0.63795 0.4012 
1.75 461 69.995 33.145 44.541 0.64222 0.4021 
1.775 451 68.68 32.978 44.899 0.64462 0.40742 
1.8 438 69.766 32.869 45.333 0.64839 0.4109 
1.825 438 75.395 32.67 45.799 0.65152 0.41722 
1.85 428 70.289 32.598 46.107 0.65415 0.41952 
1.875 428 75.559 32.41 46.629 0.65785 0.42546 
1.9 417 70.682 32.311 46.891 0.65961 0.4286 
1.925 417 76.571 32.189 47.321 0.66288 0.43242 
1.95 407 70.349 32.067 47.659 0.66509 0.43628 
1.975 407 76.841 31.95 48.04 0.66778 0.43995 
2 399 71.019 31.819 48.526 0.67134 0.44403 
2.025 399 72.934 31.698 48.885 0.67362 0.44782 
2.05 399 71.704 31.638 49.195 0.67608 0.4497 
2.075 388 69.377 31.526 49.511 0.67796 0.45317 
2.1 388 72.546 31.398 49.903 0.68034 0.45715 
2.125 388 74.636 31.298 50.292 0.68299 0.46025 
2.15 388 76.75 31.156 50.759 0.6858 0.46466 
2.175 381 68.622 31.067 51.05 0.68751 0.4674 
2.2 381 70.178 30.96 51.516 0.69064 0.47071 
2.225 381 71.557 30.834 51.992 0.69354 0.47458 
2.25 381 73.068 30.7 52.402 0.69563 0.4787 
2.275 381 73.603 30.586 52.865 0.69842 0.48217 
2.3 381 74.356 30.419 53.327 0.70038 0.48729 
2.325 381 74.954 30.268 53.816 0.70274 0.49187 
2.35 381 75.539 30.059 54.255 0.70373 0.4982 
2.375 381 75.676 29.858 54.723 0.70496 0.50429 
2.4 381 76.592 29.624 55.092 0.70477 0.51131 
2.425 381 78.853 29.367 55.498 0.70441 0.51902 
2.45 368 69.549 29.125 55.682 0.70232 0.52622 
2.475 368 68.349 28.855 55.767 0.69891 0.53419 
2.5 357 69.5 28.56 55.228 0.68985 0.54287 
2.525 357 69.201 28.26 55.377 0.68637 0.55164 
2.55 357 67.825 28.196 54.874 0.68117 0.5535 
2.575 357 71.72 28.058 54.669 0.67726 0.55753 
2.6 357 66.901 27.917 54.756 0.67576 0.56158 
2.625 357 78.913 27.828 54.583 0.67288 0.56417 
2.65 350 70.16 27.869 54.379 0.67183 0.56298 
2.675 350 60.888 27.914 54.218 0.67119 0.56167 
2.7 360 68.145 27.837 54.353 0.6711 0.56391 
2.725 360 63.41 27.812 54.467 0.67166 0.56461 
2.75 360 65.943 27.801 54.467 0.67148 0.56493 
2.775 369 68.426 27.756 54.589 0.67177 0.56624 
2.8 369 66.861 27.787 54.595 0.67232 0.56535 
2.825 369 65.579 27.755 54.766 0.67322 0.56627 
2.85 369 61.823 27.72 54.981 0.67443 0.56728 
2.875 369 59.883 27.732 54.927 0.67418 0.56693 
2.9 377 67.935 27.677 55.123 0.67492 0.56849 
2.925 377 66.231 27.629 55.331 0.67584 0.56987 
2.95 377 65.373 27.504 55.763 0.67726 0.57347 
2.975 377 61.268 27.565 55.63 0.67721 0.57171 
3 377 58.953 27.473 55.88 0.6777 0.57435 
3.025 387 68.286 27.371 56.106 0.67781 0.57725 
3.05 387 64.645 27.391 56.094 0.67804 0.5767 
3.075 387 61.534 27.214 56.667 0.67958 0.58171 
3.1 387 77.041 27.088 56.882 0.6791 0.58529 
3.125 387 74.491 27.081 56.872 0.6789 0.58549 
3.15 387 69.533 26.958 57.198 0.6793 0.58897 
3.175 387 65.271 26.901 57.203 0.67834 0.59059 
3.2 387 61.253 26.836 57.21 0.67728 0.59239 
3.225 396 68.701 26.759 57.107 0.67515 0.59457 
3.25 396 64.868 26.665 57.151 0.67384 0.5972 
3.275 396 60.123 26.474 57.298 0.67159 0.60254 
3.3 408 68.931 26.356 57.039 0.66755 0.60581 
3.325 408 61.754 26.159 57.02 0.66388 0.61128 
3.35 418 68.688 26.084 56.658 0.65982 0.61335 
3.375 418 67.773 25.965 56.439 0.65603 0.61661 
3.4 418 66.976 25.945 55.95 0.65193 0.61717 
3.425 418 64.755 25.971 55.529 0.64914 0.61645 
3.45 418 62.259 26.036 55.122 0.6471 0.61466 
3.475 427 69.345 26.128 54.823 0.64634 0.61214 
3.5 427 65.371 26.163 54.634 0.64545 0.61116 
3.525 427 61.51 26.225 54.506 0.6455 0.60946 
3.55 427 59.036 26.297 54.286 0.64496 0.60747 
3.575 439 68.892 26.41 54.036 0.64487 0.60432 
3.6 439 66.065 26.516 53.741 0.64424 0.60138 
3.625 439 63.681 26.656 53.518 0.64476 0.59747 
3.65 439 61.523 26.774 53.337 0.64522 0.59414 
3.675 439 59.912 26.969 53.063 0.64614 0.58865 
3.7 449 68.799 27.176 52.93 0.64838 0.5828 
3.725 449 67.059 27.333 52.792 0.64973 0.57834 
3.75 449 65.019 27.559 52.653 0.65214 0.57189 
3.775 449 62.311 27.798 52.54 0.65492 0.56502 
3.8 458 68.252 28.054 52.528 0.6588 0.55763 
3.825 458 64.189 28.263 52.497 0.66174 0.55155 
3.85 467 68.865 28.539 52.537 0.66627 0.5435 
3.875 467 62.831 28.799 52.653 0.6712 0.53586 
3.9 479 69.784 29.02 52.857 0.67631 0.52931 
3.925 479 64.184 29.387 52.803 0.68117 0.51841 
3.95 479 59.759 29.702 53.031 0.68773 0.50898 
3.975 492 68.055 29.997 53.209 0.69349 0.5001 
4 492 63.916 30.294 53.52 0.70043 0.49108 
4.025 492 60.17 30.654 53.684 0.70683 0.48009 
4.05 505 68.809 30.899 54.215 0.71492 0.47257 
4.075 505 65.074 31.198 54.597 0.72231 0.46337 
4.1 505 61.209 31.523 55.131 0.73134 0.45327 
4.125 517 68.794 31.893 55.464 0.73905 0.44173 
4.15 517 65.347 32.203 56.084 0.74843 0.43198 
4.175 517 62.969 32.522 56.747 0.75818 0.42192 
4.2 517 61.454 32.865 57.57 0.76944 0.41105 
4.225 517 60.488 33.207 58.376 0.78037 0.40013 
4.25 527 68.085 33.542 59.421 0.79298 0.38938 
4.275 527 66.457 33.898 60.507 0.80587 0.37789 
4.3 505 70.859 34.23 61.194 0.81506 0.36715 
4.325 505 76.643 34.293 62.606 0.82657 0.3651 
4.35 495 70.075 34.421 63.7 0.83606 0.36093 
4.375 495 74.404 34.581 64.231 0.84165 0.35572 
4.4 495 77.666 34.478 65.265 0.84767 0.3591 
4.425 486 70.315 34.201 67.013 0.85595 0.3681 
4.45 486 72.201 34.252 66.988 0.8564 0.36643 
4.475 486 74.724 33.904 68.745 0.86294 0.37771 
4.5 486 76.151 33.812 69.212 0.86451 0.38067 
4.525 486 77.331 33.721 69.732 0.86631 0.38361 
4.55 486 77.486 33.589 70.222 0.86734 0.38788 
4.575 486 77.434 33.462 70.748 0.86853 0.39196 
4.6 486 76.405 33.102 72.2 0.87118 0.40349 
4.625 486 75.353 33.206 71.41 0.86863 0.40015 
4.65 486 72.748 33.097 71.858 0.86943 0.40365 
4.675 486 71.516 32.804 73.369 0.87265 0.41296 
4.7 486 69.094 32.764 73.47 0.87255 0.41424 
4.725 486 66.416 32.792 73.186 0.87163 0.41337 
4.75 486 64.301 32.696 73.419 0.87137 0.4164 
4.775 486 61.268 32.618 73.914 0.87249 0.41888 
4.8 496 68.247 32.586 74.088 0.8728 0.41989 
4.825 496 66.053 32.522 74.352 0.87304 0.42191 
4.85 496 62.693 32.362 74.952 0.87325 0.42699 
4.875 506 68.597 32.27 75.712 0.87495 0.42989 
4.9 506 66.141 32.314 75.41 0.87441 0.4285 
4.925 506 62.586 32.186 75.646 0.87347 0.43252 
4.95 506 59.835 32.048 76.507 0.87471 0.43685 
4.975 519 69.214 32.002 76.387 0.87358 0.43829 
5 519 65.122 32.022 76.389 0.87389 0.43767 
5.025 519 62.019 31.877 76.817 0.87326 0.44223 
5.05 530 68.276 31.764 77.563 0.87414 0.44577 
5.075 530 65.118 31.559 78.349 0.87356 0.45217 
5.1 530 60.239 31.612 77.994 0.87324 0.45051 
5.125 544 68.501 31.506 78.447 0.87305 0.45381 
5.15 544 63.38 31.515 77.948 0.8716 0.45351 
5.175 556 69.699 31.415 78.48 0.87174 0.45662 
5.2 556 64.63 31.328 78.75 0.8712 0.45932 
5.225 556 59.84 31.3 78.538 0.87011 0.4602 
5.25 570 67.061 31.317 78.298 0.86963 0.45967 
5.275 570 62.59 31.069 79.681 0.86977 0.46735 
5.3 570 57.732 31.166 78.131 0.86672 0.46434 
5.325 588 68.228 30.998 79.676 0.86862 0.46953 
5.35 588 63.028 30.802 80.142 0.8667 0.47555 
5.375 588 59.162 30.74 79.703 0.8645 0.47746 
5.4 606 69.375 30.67 79.039 0.86147 0.47962 
5.425 606 63.931 30.576 79.568 0.86142 0.48249 
5.45 618 69.13 30.487 80.19 0.86161 0.48521 
5.475 618 63.992 30.429 79.645 0.85919 0.48698 
5.5 618 59.472 30.339 79.208 0.85647 0.4897 
5.525 637 69.12 30.284 79.345 0.85592 0.49139 
5.55 637 63.555 30.259 78.836 0.85404 0.49216 
5.575 637 58.429 30.34 77.922 0.85259 0.4897 
5.6 658 68.318 30.038 78.49 0.84925 0.49886 
5.625 658 62.361 30.087 78.361 0.8497 0.49737 
5.65 673 67.025 29.822 79.37 0.84809 0.50537 
5.675 673 60.991 29.734 78.859 0.84512 0.50801 
5.7 692 67.693 29.765 78.032 0.84317 0.50708 
5.725 692 61.642 29.524 78.851 0.8414 0.51433 
5.75 713 70.011 29.402 78.51 0.83826 0.51797 
5.775 713 61.934 29.324 78.254 0.8361 0.52031 
5.8 730 66.866 29.266 79.004 0.83728 0.52201 
5.825 730 59.615 29.333 76.978 0.83218 0.52003 
5.85 749 64.063 29.224 76.798 0.82965 0.52326 
5.875 765 66.961 29.372 74.462 0.82362 0.51885 
5.9 765 60.393 28.902 77.278 0.82545 0.53282 
5.925 780 61.584 29.213 74.362 0.82044 0.52358 
5.95 780 54.454 28.946 74.308 0.81548 0.53151 
5.975 780 47.309 28.823 75.025 0.81608 0.53514 
6 780 42.918 28.395 75.812 0.81115 0.5477 
6.025 780 37.508 28.74 74.105 0.81095 0.53761 
6.05 780 34.166 28.061 75.097 0.8023 0.55742 
6.075 780 30.393 28.93 72.236 0.80639 0.53198 
6.1 780 27.141 28.606 71.561 0.79753 0.54152 
6.125 780 24.264 29.478 69.643 0.80326 0.51569 
6.15 780 21.889 28.782 69.536 0.79073 0.53634 
6.175 780 19.91 28.123 71.352 0.78779 0.55562 
6.2 780 17.884 28.301 70.063 0.78483 0.55045 
6.225 780 16.303 28.518 69.376 0.78524 0.54412 
6.25 780 14.812 28.435 70.27 0.78828 0.54653 
6.275 780 13.396 28.076 69.029 0.77551 0.55698 
6.3 780 12.244 28.143 67.297 0.76736 0.55505 
6.325 780 10.895 29.131 65.806 0.77576 0.52604 
6.35 780 9.804 28.879 65.437 0.76927 0.53349 
6.375 780 8.876 29.156 63.557 0.7619 0.52529 
6.4 780 7.92 29.507 64.258 0.77221 0.51483 
6.425 780 6.995 29.205 63.151 0.75999 0.52383 
6.45 780 6.249 29.624 62.395 0.76155 0.51133 
6.475 780 5.481 29.948 59.978 0.74905 0.50157 
6.5 780 4.963 29.681 60.079 0.74573 0.5096 

# MINIMA:
0.600 350.0 0.000 25.945 0.000 0.00000 0.00000

# MAXIMA:
6.500 1930.4 82.035 45.000 80.190 0.87495 0.61717

# PEAKS:

# END SPECTRUM


# SPECTRUM:
4

# START TIME:
17:45:51

# END TIME:
17:56:15

# THETA ANGLE:
0.00 ø

# INCIDENCE ANGLE:
70.00 ø

# ACCUMULATION NUMBER:
1

# ELLIPSOMETRIC CONFIGURATION:
+45.00 øModulator
+45.00 øAnalyser

# INTEGRATION TIME:
500 ms

# FIRST POINT:
0.6000 eV

# LAST POINT:
6.5000 eV

# INCREMENT:
0.0250 eV

# NUMBER OF POINTS:
237

# DATA:
eV Hv S0 Psi Delta Is Ic
0.6 1301.8 65.052 38.193 26.778 0.43788 0.23539 
0.625 1200.2 79.152 37.717 27.705 0.44997 0.25149 
0.65 1098.6 76.409 37.168 28.901 0.46534 0.27 
0.675 1098.6 75.976 36.987 29.54 0.47387 0.27608 
0.7 997 76.706 36.774 30.492 0.48665 0.28323 
0.725 895.4 71.503 36.684 31.241 0.49694 0.28624 
0.75 895.4 75.065 36.481 31.901 0.50526 0.29301 
0.775 793.8 70.296 36.073 32.945 0.51764 0.30659 
0.8 501.7 62.848 36.386 33.258 0.5238 0.29619 
0.825 698.5 63.252 35.609 34.917 0.54191 0.32197 
0.85 698.5 60.022 35.882 34.902 0.54343 0.31294 
0.875 501.7 62.04 35.691 35.828 0.55472 0.31926 
0.9 603.3 68.748 35.389 36.668 0.56389 0.32924 
0.925 704.9 69.337 35.385 37.103 0.56959 0.32937 
0.95 704.9 60.621 35.467 37.825 0.57961 0.32667 
0.975 508 61.04 35.065 38.856 0.59002 0.33987 
1 806.5 82.025 34.959 39.472 0.59706 0.34336 
1.025 704.9 62.588 34.988 40.092 0.60509 0.3424 
1.05 508 77.796 34.703 40.875 0.61259 0.35174 
1.075 806.5 81.584 34.736 41.412 0.61947 0.35066 
1.1 704.9 66.038 34.433 42.418 0.62917 0.36056 
1.125 704.9 65.571 34.455 42.956 0.63579 0.35983 
1.15 628.7 61.804 34.211 43.723 0.64273 0.36776 
1.175 628.7 65.994 34.16 44.358 0.64968 0.36942 
1.2 730.3 71.46 33.978 45.179 0.65746 0.37531 
1.225 533.4 71.645 33.883 45.844 0.6641 0.3784 
1.25 355.6 61.169 33.751 46.481 0.66995 0.38266 
1.275 635 78.538 33.66 46.991 0.67471 0.38558 
1.3 552.5 63.233 33.362 47.982 0.68246 0.39517 
1.325 749.3 72.975 33.397 48.38 0.68708 0.39405 
1.35 450.9 72.059 33.173 49.13 0.69266 0.40121 
1.375 850.9 82.805 33.077 49.652 0.69707 0.40426 
1.4 552.5 66.628 32.84 50.552 0.70367 0.41185 
1.425 1251 65.199 32.781 51.144 0.70895 0.41372 
1.45 1949.5 60.699 32.58 51.821 0.71335 0.4201 
1.475 780 0 45 0 0.716257 0.423423 
1.5 456 63.624 32.318 52.804 0.71978 0.42838 
1.525 556 76.946 31.959 53.935 0.72603 0.43966 
1.55 503 71.405 32.089 53.746 0.72588 0.43558 
1.575 540 67.311 31.975 54.506 0.73147 0.43915 
1.6 540 75.847 31.633 55.595 0.73687 0.44985 
1.625 494 70.538 31.766 55.425 0.73708 0.44569 
1.65 494 64.642 31.546 56.232 0.74129 0.45256 
1.675 494 78.219 31.349 57.039 0.74558 0.45867 
1.7 477 68.955 31.299 57.467 0.74848 0.46024 
1.725 477 80.266 31.16 58.078 0.75163 0.46454 
1.75 461 69.969 31.084 58.508 0.75407 0.46688 
1.775 452 69.576 30.934 59.088 0.75661 0.47149 
1.8 438 70.134 30.797 59.645 0.75901 0.47572 
1.825 438 75.549 30.631 60.329 0.76186 0.4808 
1.85 428 70.378 30.556 60.625 0.76299 0.48309 
1.875 428 75.673 30.383 61.409 0.76622 0.48839 
1.9 416 69.64 30.306 61.725 0.76736 0.49071 
1.925 416 75.967 30.21 62.291 0.76993 0.49365 
1.95 406 69.332 30.114 62.716 0.77144 0.49655 
1.975 406 75.914 29.985 63.202 0.77277 0.50046 
2 398 70.365 29.883 63.83 0.77541 0.50352 
2.025 398 72.398 29.754 64.326 0.77663 0.50741 
2.05 398 70.788 29.674 64.78 0.77828 0.50982 
2.075 388 70.486 29.578 65.26 0.77976 0.51271 
2.1 388 73.62 29.508 65.695 0.78132 0.5148 
2.125 388 75.918 29.39 66.34 0.7833 0.51833 
2.15 388 78.301 29.273 66.943 0.78492 0.52181 
2.175 379 67.938 29.2 67.306 0.78579 0.52398 
2.2 379 69.058 29.087 67.785 0.78659 0.52734 
2.225 379 70.736 28.998 68.481 0.7889 0.52999 
2.25 379 71.977 28.878 69.059 0.78992 0.53352 
2.275 379 73.364 28.774 69.721 0.79154 0.53659 
2.3 379 73.498 28.64 70.408 0.79261 0.54054 
2.325 379 73.793 28.479 71.115 0.79314 0.54526 
2.35 379 75.185 28.319 71.74 0.79315 0.54993 
2.375 379 75.213 28.158 72.273 0.79261 0.5546 
2.4 379 75.974 27.901 73.047 0.79116 0.56205 
2.425 372 68.3 27.674 73.325 0.78803 0.56859 
2.45 372 77.819 27.392 73.873 0.78484 0.57666 
2.475 372 76.035 27.104 74.09 0.78008 0.58483 
2.5 355 70.071 26.789 72.933 0.76923 0.59373 
2.525 355 70.467 26.5 73.174 0.76445 0.60182 
2.55 355 68.561 26.444 72.009 0.75847 0.60338 
2.575 355 72.689 26.216 72.302 0.75512 0.6097 
2.6 355 67.238 26.095 72.561 0.75373 0.61305 
2.625 349 70.128 26.09 71.89 0.75081 0.61318 
2.65 349 72.909 25.975 72.292 0.75015 0.61636 
2.675 349 63.13 26.049 71.792 0.74955 0.61431 
2.7 358 69.437 26 71.728 0.74827 0.61567 
2.725 358 64.687 25.97 71.931 0.74854 0.61648 
2.75 358 67.161 25.923 72.262 0.74897 0.61777 
2.775 365 67.063 25.936 72.232 0.74911 0.61742 
2.8 365 65.763 25.922 72.392 0.7495 0.61779 
2.825 365 64.238 25.907 72.6 0.75005 0.6182 
2.85 365 60.481 25.94 72.446 0.75008 0.61731 
2.875 373 68.229 25.814 73.37 0.75121 0.62076 
2.9 373 66.339 25.889 73.043 0.75147 0.6187 
2.925 373 64.721 25.85 73.085 0.75083 0.61977 
2.95 373 64.059 25.845 73.292 0.75153 0.61992 
2.975 373 60.417 25.8 73.462 0.75128 0.62114 
3 382 68.953 25.672 74.328 0.75187 0.62465 
3.025 382 65.634 25.624 74.637 0.752 0.62595 
3.05 382 62.251 25.632 74.605 0.75205 0.62573 
3.075 390 69.109 25.58 74.707 0.75132 0.62714 
3.1 379 70.643 25.479 75.304 0.75129 0.62988 
3.125 379 67.738 25.444 75.356 0.75071 0.63084 
3.15 379 63.953 25.349 75.775 0.7501 0.6334 
3.175 379 59.494 25.281 75.971 0.74929 0.63523 
3.2 389 67.394 25.217 75.819 0.7474 0.63697 
3.225 389 64.193 25.082 76.216 0.74577 0.64059 
3.25 389 60.666 24.988 76.262 0.74386 0.64312 
3.275 400 68.978 24.788 76.656 0.74072 0.64844 
3.3 400 63.826 24.705 76.1 0.73715 0.65064 
3.325 409 67.544 24.51 76.225 0.73323 0.65579 
3.35 409 62.8 24.297 76.495 0.7293 0.66139 
3.375 409 61.712 24.132 76.566 0.7258 0.6657 
3.4 409 60.902 24.112 75.791 0.72294 0.66622 
3.425 409 59.216 24.003 75.89 0.72078 0.66906 
3.45 419 67.73 24.003 75.544 0.71968 0.66906 
3.475 419 64.461 24.068 74.821 0.71876 0.66735 
3.5 419 60.973 24.088 74.549 0.71826 0.66684 
3.525 428 67.386 24.097 74.458 0.71816 0.66661 
3.55 428 64.244 24.133 74.168 0.71794 0.66566 
3.575 428 61.5 24.19 73.796 0.71788 0.66418 
3.6 437 68.591 24.228 73.554 0.71782 0.66321 
3.625 437 66.48 24.363 72.826 0.71806 0.65965 
3.65 437 63.521 24.384 73.032 0.71932 0.6591 
3.675 437 61.818 24.493 72.783 0.72074 0.65625 
3.7 437 59.899 24.583 72.569 0.72187 0.65386 
3.725 448 70.419 24.766 72.185 0.72429 0.64903 
3.75 448 67.937 24.916 72.227 0.72769 0.64503 
3.775 448 65.19 25.191 71.306 0.72966 0.63768 
3.8 448 61.985 25.357 71.2 0.73271 0.63318 
3.825 458 68.552 25.618 70.821 0.73645 0.62612 
3.85 458 63.344 25.777 70.864 0.73992 0.62178 
3.875 468 67.809 26.051 70.638 0.74448 0.61426 
3.9 468 61.919 26.305 70.683 0.74979 0.60724 
3.925 480 68.702 26.622 70.485 0.75516 0.59842 
3.95 480 63.779 26.941 70.266 0.76035 0.58946 
3.975 490 69.282 27.203 70.568 0.76685 0.58203 
4 490 64.656 27.554 70.326 0.77235 0.57202 
4.025 490 60.378 27.848 70.513 0.77874 0.56359 
4.05 500 66.558 28.191 70.718 0.78604 0.55365 
4.075 500 63.11 28.525 70.783 0.79239 0.5439 
4.1 510 67.583 28.829 71.266 0.80011 0.53497 
4.125 510 64.076 29.3 71.339 0.80868 0.52101 
4.15 510 60.473 29.673 71.646 0.81649 0.50986 
4.175 520 67.599 30.061 72.205 0.8256 0.49816 
4.2 520 66.088 30.489 72.508 0.834 0.48514 
4.225 520 64.784 30.974 73.151 0.84463 0.47028 
4.25 520 63.335 31.472 73.68 0.85468 0.45487 
4.275 520 61.149 31.95 74.688 0.86615 0.43992 
4.3 504 70.848 32.419 75.097 0.87467 0.42518 
4.325 504 76.507 32.984 74.722 0.88105 0.40723 
4.35 494 70.036 33.171 76.782 0.89169 0.40127 
4.375 494 74.254 33.46 77.029 0.89648 0.39202 
4.4 494 77.989 33.48 78.114 0.9005 0.39138 
4.425 483 68.554 33.586 78.543 0.90331 0.38797 
4.45 483 71.314 33.676 78.718 0.90506 0.38505 
4.475 483 73.645 33.667 78.935 0.90562 0.38535 
4.5 483 75.191 33.561 79.611 0.90623 0.38877 
4.525 483 76.334 33.483 79.856 0.90589 0.39127 
4.55 483 77.68 33.317 80.788 0.90615 0.3966 
4.575 483 78.178 33.11 81.625 0.90534 0.40323 
4.6 483 77.193 33.161 80.032 0.90199 0.40161 
4.625 483 76.123 33.047 79.908 0.90007 0.40524 
4.65 483 75.242 32.867 80.382 0.89883 0.41098 
4.675 483 73.206 32.952 79.022 0.89615 0.40828 
4.7 483 71.559 32.71 80.532 0.897 0.41595 
4.725 483 68.727 32.748 78.944 0.89304 0.41476 
4.75 483 67.385 32.593 79.79 0.8933 0.41967 
4.775 483 64.561 32.47 80.015 0.89215 0.42356 
4.8 483 60.631 32.445 79.417 0.89009 0.42435 
4.825 495 70.704 32.53 78.41 0.88827 0.42166 
4.85 495 67.254 32.361 78.89 0.8873 0.42701 
4.875 495 64.209 32.422 78.384 0.88661 0.42509 
4.9 495 61.017 32.407 77.699 0.88416 0.42555 
4.925 508 71.055 32.24 78.157 0.88322 0.43084 
4.95 508 67.979 32.2 77.734 0.88125 0.43208 
4.975 508 65.643 32.152 77.834 0.88087 0.43359 
5 508 61.965 32.058 77.824 0.87945 0.43654 
5.025 519 69.37 32.013 77.147 0.87646 0.43797 
5.05 519 64.105 32.13 75.918 0.8737 0.4343 
5.075 529 70.998 32.067 76.024 0.87318 0.43626 
5.1 529 65.218 31.91 76.306 0.8719 0.44119 
5.125 529 61.505 31.86 75.808 0.86928 0.44275 
5.15 542 68.676 31.836 75.514 0.86777 0.44351 
5.175 542 63.868 31.931 74.242 0.86399 0.44055 
5.2 553 69.508 31.737 75.207 0.86508 0.4466 
5.225 553 64.189 31.686 74.654 0.86206 0.4482 
5.25 564 69.12 31.795 73.764 0.85992 0.44479 
5.275 564 64.134 31.67 74.023 0.85917 0.44869 
5.3 564 59.369 31.587 73.818 0.85703 0.45127 
5.325 581 70.085 31.591 73.453 0.85548 0.45116 
5.35 581 64.773 31.531 72.959 0.85237 0.45301 
5.375 581 60.42 31.58 72.212 0.84961 0.45151 
5.4 595 67.693 31.381 72.308 0.84707 0.45768 
5.425 595 62.488 31.453 71.742 0.84544 0.45545 
5.45 607 67.754 31.271 71.744 0.84268 0.4611 
5.475 607 62.531 31.432 70.939 0.84113 0.4561 
5.5 619 66.942 31.179 71.029 0.83775 0.46393 
5.525 619 61.689 31.196 70.523 0.83543 0.46342 
5.55 632 66.858 30.957 70.771 0.83302 0.47081 
5.575 632 61.129 30.913 70.438 0.83063 0.47217 
5.6 646 65.894 30.888 69.743 0.8266 0.47293 
5.625 646 60.152 30.953 68.918 0.82313 0.47093 
5.65 664 67.27 31.008 68.637 0.82241 0.46922 
5.675 664 61.696 30.989 68.108 0.81911 0.4698 
5.7 680 66.872 30.679 68.759 0.818 0.47935 
5.725 680 60.201 30.347 68.787 0.81293 0.48948 
5.75 700 68.229 30.474 67.848 0.80965 0.48561 
5.775 700 60.629 30.335 68.123 0.80903 0.48983 
5.8 718 66.319 30.62 66.847 0.80603 0.48115 
5.825 733 69.565 30.199 67.391 0.80266 0.49396 
5.85 733 61.827 30.518 65.506 0.79618 0.48427 
5.875 755 69.305 30.517 65.162 0.79398 0.48429 
5.9 755 61.052 30.319 65.647 0.79399 0.49033 
5.925 778 67.835 30.149 65.562 0.79079 0.4955 
5.95 778 60.713 30.045 65.255 0.78722 0.49864 
5.975 780 54.415 29.729 64.783 0.77918 0.50817 
6 780 48.801 30.151 64.028 0.78092 0.49544 
6.025 780 43.169 30 63.258 0.77339 0.50001 
6.05 780 38.392 29.606 64.332 0.7743 0.499315 
6.075 780 35.013 30.071 63.259 0.7745 0.49787 
6.1 780 31.418 29.994 62.865 0.77061 0.50019 
6.125 780 28.02 29.263 62.796 0.75854 0.493802 
6.15 780 25.313 30.35 60.398 0.75825 0.48937 
6.175 780 22.711 30.081 61.038 0.75895 0.49756 
6.2 780 20.555 30.253 60.896 0.76051 0.49233 
6.225 780 18.883 30.192 59.75 0.75098 0.49418 
6.25 780 17.034 29.759 60.961 0.75346 0.50725 
6.275 780 15.447 29.873 60.227 0.74977 0.50385 
6.3 780 14.002 30.2 58.169 0.73873 0.49395 
6.325 780 12.668 30.469 58.68 0.74672 0.48576 
6.35 780 11.309 30.334 58.3 0.74174 0.48986 
6.375 780 9.969 30.332 58.478 0.74312 0.48994 
6.4 780 9.025 30.123 58.593 0.74096 0.49629 
6.425 780 7.985 29.766 57.861 0.72983 0.50707 
6.45 780 7.24 31.188 57.396 0.74639 0.46366 
6.475 780 6.245 30.238 57.101 0.7306 0.4928 
6.5 780 5.744 30.675 55.58 0.72392 0.47946 

# MINIMA:
0.600 349.0 0.000 24.003 0.000 0.00000 0.00000

# MAXIMA:
6.500 1949.5 82.805 45.000 81.625 0.90623 0.66906

# PEAKS:

# END SPECTRUM


# SPECTRUM:
5

# START TIME:
17:56:59

# END TIME:
18:07:24

# THETA ANGLE:
0.00 ø

# INCIDENCE ANGLE:
75.00 ø

# ACCUMULATION NUMBER:
1

# ELLIPSOMETRIC CONFIGURATION:
+45.00 øModulator
+45.00 øAnalyser

# INTEGRATION TIME:
500 ms

# FIRST POINT:
0.6000 eV

# LAST POINT:
6.5000 eV

# INCREMENT:
0.0250 eV

# NUMBER OF POINTS:
237

# DATA:
eV Hv S0 Psi Delta Is Ic
0.6 1397 68.585 35.395 37.893 0.57999 0.32902 
0.625 1200.2 76.075 34.719 39.323 0.59332 0.35123 
0.65 1098.6 75.84 34.743 40.216 0.60473 0.35042 
0.675 1098.6 74.907 33.859 42.152 0.62099 0.37916 
0.7 997 78.453 34.543 41.943 0.62436 0.35696 
0.725 895.4 73.01 34.169 43.37 0.63822 0.36912 
0.75 895.4 77.526 33.544 45.097 0.65242 0.38931 
0.775 793.8 73.789 33.79 45.409 0.65831 0.3814 
0.8 495.3 64.055 34.071 45.695 0.66419 0.37229 
0.825 692.2 66.888 33.249 48.111 0.68269 0.39879 
0.85 692.2 63.553 33.219 48.776 0.68943 0.39974 
0.875 495.3 63.163 33.635 48.474 0.69051 0.38639 
0.9 596.9 70.117 32.971 50.68 0.70642 0.40766 
0.925 698.5 72.129 32.804 51.598 0.71372 0.41299 
0.95 698.5 62.231 33.053 52.006 0.72053 0.40504 
0.975 501.7 63.214 32.392 54.133 0.73316 0.42602 
1 698.5 61.144 32.674 54.249 0.73759 0.41712 
1.025 698.5 63.07 32.385 55.548 0.74594 0.42625 
1.05 501.7 80.395 32.437 55.927 0.74994 0.42461 
1.075 800.1 82.416 32.195 57.229 0.75823 0.43226 
1.1 698.5 66.082 32.233 57.693 0.76264 0.43106 
1.125 698.5 65.422 32.081 58.939 0.77099 0.43583 
1.15 616 61.374 32.13 59.392 0.77527 0.43429 
1.175 616 66.015 31.916 60.574 0.78172 0.441 
1.2 717.6 70.016 31.584 62.349 0.79041 0.45138 
1.225 520.7 70.177 31.593 62.604 0.79238 0.4511 
1.25 349.3 63.165 31.558 63.306 0.79686 0.45218 
1.275 635 82.981 31.436 64.154 0.80096 0.45598 
1.3 539.8 62.92 31.351 64.984 0.80527 0.45863 
1.325 736.6 74.168 31.213 65.79 0.80845 0.46289 
1.35 438.2 69.911 30.919 67.363 0.8137 0.47196 
1.375 825.5 80.538 30.813 68.358 0.81784 0.47523 
1.4 527.1 63.533 30.708 69.266 0.82124 0.47846 
1.425 1225.6 63.036 30.749 69.405 0.82263 0.4772 
1.45 2025.7 62.152 30.604 70.418 0.82569 0.48162 
1.475 780 0 45 0 0.824655 0.482027 
1.5 427 46.529 30.506 70.492 0.82451 0.48462 
1.525 543 75.835 30.145 72.918 0.83024 0.4956 
1.55 490 71.732 30.178 72.93 0.83082 0.49461 
1.575 527 67.057 30.09 73.725 0.83282 0.49728 
1.6 527 76.887 29.923 75.01 0.83526 0.50232 
1.625 485 72.414 29.867 75.381 0.83573 0.50403 
1.65 485 66.804 29.828 75.772 0.83654 0.50518 
1.675 476 69.544 29.816 76.083 0.83748 0.50554 
1.7 476 79.318 29.674 77.372 0.83947 0.50982 
1.725 459 70.603 29.597 77.594 0.83886 0.51212 
1.75 450 68.763 29.456 78.903 0.84035 0.51637 
1.775 450 79.171 29.447 78.943 0.84031 0.51663 
1.8 430 71.443 29.286 80.504 0.84161 0.52142 
1.825 430 76.465 29.181 81.503 0.84203 0.52455 
1.85 418 68.246 29.186 80.852 0.84064 0.52441 
1.875 418 73.596 29.11 81.991 0.84178 0.52667 
1.9 409 70.795 28.964 82.909 0.84091 0.53098 
1.925 409 76.484 28.931 83.775 0.84178 0.53195 
1.95 400 70.67 28.847 84.153 0.84081 0.53444 
1.975 400 76.694 28.763 85.064 0.84051 0.53691 
2 392 70.245 28.718 86.302 0.84103 0.53825 
2.025 392 72.149 28.6 90 0.84099 0.54171 
2.05 392 70.11 28.587 89.635 0.84029 0.5421 
2.075 382 68.882 28.547 88.007 0.83906 0.54326 
2.1 382 72.242 28.486 90 0.83893 0.54505 
2.125 382 74.466 28.449 90 0.83836 0.54612 
2.15 382 76.511 28.4 90 0.83812 0.54757 
2.175 382 78.312 28.334 90 0.8371 0.5495 
2.2 375 69.722 28.286 90 0.83615 0.5509 
2.225 375 71.542 28.243 90 0.83563 0.55214 
2.25 375 72.864 28.181 90 0.83451 0.55396 
2.275 375 73.5 28.131 90 0.83388 0.55539 
2.3 375 73.893 28.055 90 0.8321 0.55759 
2.325 375 74.391 27.936 90 0.82994 0.56105 
2.35 375 75.271 27.85 90 0.82683 0.56352 
2.375 375 75.539 27.716 90 0.82395 0.56738 
2.4 375 76.27 27.54 87.836 0.81937 0.57243 
2.425 375 78.939 27.338 86.581 0.81444 0.5782 
2.45 363 70.557 27.154 85.165 0.80927 0.58344 
2.475 363 69.355 26.892 84.473 0.80304 0.59083 
2.5 351 70.571 26.56 81.15 0.79037 0.60015 
2.525 351 70.641 26.399 79.9 0.78418 0.60461 
2.55 351 68.786 26.171 80.043 0.77975 0.61094 
2.575 351 72.824 25.999 79.986 0.77598 0.6157 
2.6 351 67.919 25.897 80.003 0.77386 0.61849 
2.625 345 71.079 25.778 80.646 0.77279 0.62176 
2.65 345 73.705 25.771 79.772 0.77063 0.62193 
2.675 345 63.609 25.84 79.031 0.77022 0.62006 
2.7 353 68.346 25.818 78.644 0.76873 0.62067 
2.725 353 63.129 25.756 79.369 0.7693 0.62236 
2.75 353 65.707 25.763 79.165 0.76893 0.62217 
2.775 361 66.707 25.77 79.011 0.76868 0.62197 
2.8 361 65.1 25.785 78.958 0.76887 0.62155 
2.825 361 63.861 25.781 78.981 0.76883 0.62168 
2.85 361 60.143 25.781 78.893 0.76861 0.62167 
2.875 369 68.214 25.72 79.365 0.76853 0.62332 
2.9 369 66.017 25.8 78.368 0.76759 0.62116 
2.925 369 64.121 25.811 78.094 0.76708 0.62084 
2.95 369 63.562 25.783 78.325 0.76712 0.62161 
2.975 377 70.082 25.708 78.427 0.76581 0.62365 
3 377 67.261 25.692 78.505 0.76567 0.6241 
3.025 377 64.178 25.722 77.927 0.76471 0.62327 
3.05 377 60.79 25.754 77.228 0.76334 0.62239 
3.075 391 75.349 25.639 77.681 0.76223 0.62554 
3.1 376 71.919 25.614 77.463 0.76105 0.62623 
3.125 376 69.515 25.604 77.15 0.75991 0.62649 
3.15 376 64.992 25.562 77.094 0.75884 0.62764 
3.175 376 60.669 25.54 76.452 0.75638 0.62823 
3.2 386 69.276 25.477 76.033 0.75368 0.62994 
3.225 386 65.892 25.44 75.518 0.75117 0.63096 
3.25 386 62.156 25.336 75.377 0.74848 0.63375 
3.275 395 68.99 25.147 75.699 0.74549 0.63885 
3.3 395 63.15 25.06 75.076 0.7415 0.64118 
3.325 405 68.104 24.884 75.097 0.73776 0.64589 
3.35 405 63.472 24.713 75.07 0.73392 0.65044 
3.375 405 62.803 24.494 75.817 0.73157 0.65621 
3.4 405 61.462 24.429 75.419 0.72884 0.65792 
3.425 405 59.649 24.305 75.883 0.72756 0.66119 
3.45 416 69.809 24.284 76.06 0.72767 0.66172 
3.475 416 66.512 24.266 75.922 0.72682 0.6622 
3.5 416 62.534 24.241 76.324 0.72751 0.66286 
3.525 425 69.439 24.18 76.738 0.7274 0.66445 
3.55 425 65.63 24.16 77.12 0.72807 0.66498 
3.575 425 62.394 24.228 76.493 0.72774 0.6632 
3.6 434 69.974 24.2 77.072 0.72885 0.66391 
3.625 434 67.254 24.212 77.195 0.72948 0.66361 
3.65 434 64.74 24.258 77.426 0.73116 0.66242 
3.675 434 62.45 24.253 77.912 0.73241 0.66255 
3.7 434 60.4 24.319 78.295 0.73494 0.66082 
3.725 443 68.065 24.385 78.659 0.73737 0.6591 
3.75 443 65.092 24.466 79.363 0.74097 0.65696 
3.775 443 62.591 24.579 79.496 0.74384 0.65397 
3.8 452 68.408 24.72 79.727 0.74755 0.65023 
3.825 452 63.89 24.864 79.821 0.75097 0.64642 
3.85 452 59.141 25.07 79.716 0.75528 0.64092 
3.875 466 67.269 25.222 80.391 0.76019 0.63682 
3.9 466 61.386 25.46 80.016 0.76451 0.6304 
3.925 479 69.192 25.684 80.435 0.77031 0.62431 
3.95 479 64.366 25.946 79.988 0.77486 0.61716 
3.975 479 60.045 26.226 79.933 0.78063 0.60944 
4 492 67.573 26.467 80.326 0.7866 0.60272 
4.025 492 63.802 26.71 80.664 0.79238 0.59595 
4.05 492 59.786 27.046 80.685 0.79928 0.58648 
4.075 505 68.557 27.259 81.135 0.80458 0.58044 
4.1 505 63.932 27.683 81.086 0.81286 0.56833 
4.125 505 60.3 28.068 81.141 0.82045 0.55723 
4.15 516 66.853 28.401 81.679 0.82797 0.54753 
4.175 516 64.816 28.896 81.236 0.83625 0.53299 
4.2 516 62.785 29.241 81.891 0.84395 0.52277 
4.225 516 61.497 29.799 81.403 0.85281 0.50606 
4.25 516 59.74 30.39 81.364 0.86285 0.48817 
4.275 527 68.244 30.932 80.964 0.87088 0.47158 
4.3 502 70.966 31.57 79.068 0.87592 0.45182 
4.325 502 75.349 32.202 77.642 0.88097 0.43202 
4.35 493 69.838 32.673 76.689 0.88443 0.41713 
4.375 493 73.222 33.102 75.415 0.88551 0.40347 
4.4 493 77.111 33.177 76.166 0.88947 0.40109 
4.425 484 69.165 33.595 74.083 0.88646 0.38767 
4.45 484 71.544 33.796 72.862 0.88344 0.38122 
4.475 484 73.81 33.766 73.142 0.88439 0.38216 
4.5 484 75.053 33.846 72.149 0.88061 0.3796 
4.525 484 76.425 33.938 70.874 0.87524 0.37661 
4.55 484 77.173 34.029 69.668 0.86977 0.37368 
4.575 484 77.193 33.939 69.081 0.86531 0.3766 
4.6 484 76.859 33.858 68.514 0.86101 0.3792 
4.625 484 75.817 33.752 68.007 0.85667 0.38263 
4.65 484 75.213 33.667 67.47 0.85234 0.38536 
4.675 484 73.403 33.692 66.78 0.84833 0.38456 
4.7 484 71.606 33.693 66.163 0.84437 0.38454 
4.725 484 69.646 33.67 65.481 0.83959 0.38527 
4.75 484 68.092 33.654 64.957 0.83585 0.38579 
4.775 484 64.999 33.503 64.866 0.83339 0.39062 
4.8 484 61.852 33.486 64.424 0.83013 0.3912 
4.825 484 60.051 33.564 63.771 0.82651 0.38866 
4.85 495 67.409 33.472 63.428 0.82293 0.39162 
4.875 495 65.309 33.459 63.256 0.82153 0.39205 
4.9 495 61.999 33.502 62.626 0.81745 0.39068 
4.925 506 69.514 33.405 62.403 0.81463 0.39377 
4.95 506 66.498 33.401 61.968 0.81132 0.39391 
4.975 506 63.152 33.389 61.517 0.80775 0.3943 
5 506 60.981 33.428 61.163 0.8055 0.39304 
5.025 517 67.957 33.44 60.854 0.80323 0.39266 
5.05 517 64.609 33.457 60.135 0.79775 0.39212 
5.075 517 60.051 33.438 59.868 0.79538 0.39273 
5.1 528 66.526 33.34 59.652 0.79248 0.39586 
5.125 528 61.948 33.353 59.322 0.78994 0.39546 
5.15 528 58.528 33.429 58.64 0.7852 0.39301 
5.175 548 71.957 33.415 58.613 0.78481 0.39346 
5.2 548 66.874 33.525 57.897 0.78005 0.38992 
5.225 548 61.957 33.384 57.812 0.77769 0.39445 
5.25 561 69.057 33.308 57.74 0.77617 0.3969 
5.275 561 64.281 33.415 56.9 0.77015 0.39348 
5.3 561 60.321 33.333 56.91 0.76929 0.39608 
5.325 575 68.327 33.4 56.461 0.76612 0.39393 
5.35 575 62.783 33.437 55.909 0.76161 0.39275 
5.375 575 58.874 33.34 55.692 0.75854 0.39587 
5.4 591 67.814 33.429 55.209 0.75515 0.39303 
5.425 591 63.047 33.227 55.135 0.75219 0.39948 
5.45 591 58.777 33.21 54.778 0.74871 0.40002 
5.475 609 68.977 33.334 54.099 0.74379 0.39606 
5.5 609 63.704 33.131 54.378 0.74411 0.40255 
5.525 609 58.882 33.114 53.871 0.73917 0.40308 
5.55 628 68.015 33.1 53.681 0.73721 0.40356 
5.575 628 63.33 32.927 53.488 0.73341 0.40908 
5.6 628 57.866 33.15 52.766 0.72903 0.40194 
5.625 646 65.097 32.974 52.605 0.72549 0.40757 
5.65 661 71.038 32.989 52.275 0.72245 0.40709 
5.675 661 64.958 32.906 52.158 0.72038 0.40972 
5.7 661 58.772 32.899 51.781 0.7166 0.40995 
5.725 680 66.223 32.93 51.547 0.71463 0.40898 
5.75 680 60.553 32.987 50.728 0.70709 0.40714 
5.775 698 65.812 32.823 51.098 0.70896 0.41239 
5.8 698 59.418 32.752 50.733 0.70452 0.41462 
5.825 718 66.49 32.49 50.568 0.6999 0.42294 
5.85 718 59.338 32.801 49.796 0.69554 0.41308 
5.875 743 68.096 32.766 49.703 0.69421 0.4142 
5.9 743 61.549 32.572 49.565 0.69063 0.42033 
5.925 764 66.546 32.65 49.561 0.69146 0.41786 
5.95 764 59.422 32.605 48.168 0.67644 0.41929 
5.975 780 60.848 32.503 48.107 0.67468 0.42252 
6 780 54.925 32.29 48.736 0.67891 0.42924 
6.025 780 48.688 32.963 47.433 0.67242 0.40791 
6.05 780 43.581 32.643 47.915 0.67418 0.4181 
6.075 780 39.366 32.386 47.766 0.66978 0.42624 
6.1 780 35.704 32.609 47.347 0.66774 0.41917 
6.125 780 31.391 32.701 47.289 0.66811 0.41625 
6.15 780 28.438 32.467 46.478 0.65682 0.42366 
6.175 780 25.933 32.707 46.834 0.66325 0.41607 
6.2 780 23.642 32.298 46.851 0.65903 0.42899 
6.225 780 21.269 32.481 46.292 0.65494 0.42322 
6.25 780 19.395 32.954 45.443 0.65048 0.40819 
6.275 780 17.717 32.79 45.496 0.64941 0.41341 
6.3 780 16.082 32.578 46.41 0.65726 0.42015 
6.325 780 14.306 32.739 44.991 0.64323 0.41504 
6.35 780 12.857 32.693 45.476 0.64817 0.41651 
6.375 780 11.528 32.387 45.033 0.64004 0.4262 
6.4 780 10.275 33.357 44.533 0.64418 0.39533 
6.425 780 9.045 32.74 45.586 0.64988 0.41501 
6.45 780 8.076 33.05 44.999 0.64647 0.40514 
6.475 780 7.084 32.879 44.855 0.64312 0.41058 
6.5 780 6.281 33.814 45.289 0.65718 0.38061 

# MINIMA:
0.600 345.0 0.000 24.160 0.000 0.00000 0.00000

# MAXIMA:
6.500 2025.7 82.981 45.000 90.000 0.88947 0.66498

# PEAKS:

# END SPECTRUM

