ASCII SCAN ANALOG DATA:			smaz.sac
DATE:	4/26/2012	TIME:	08:12:19 PM

Number of stored SCA cycles			1
Converted SCA cycle			1

INFO SCAN:		1
Data Titel	Countrate
Data Unit	cps
Scan Titel	Energy
Scan Unit	eV
Comment	
First Mass	 81.00
Scan Width	5
Values/Mass	64
Zoom Start	 81.00
Zoom End	 86.00

INFO ADDI DATA:		1
Title	Mass
Unit	amu
Comment	

Cycle	CycleDate	CycleTime	
1	4/26/2012	08:12:19 PM:14
AddiData	1
28
ScanData	1
  81.00	0
  81.02	0
  81.03	0
  81.05	0
  81.06	0
  81.08	0
  81.09	0
  81.11	0
  81.13	0
  81.14	0
  81.16	0
  81.17	0
  81.19	0
  81.20	0
  81.22	0
  81.23	0
  81.25	0
  81.27	0
  81.28	0
  81.30	0
  81.31	0
  81.33	0
  81.34	0
  81.36	0
  81.38	0
  81.39	0
  81.41	0
  81.42	0
  81.44	0
  81.45	0
  81.47	0
  81.48	0
  81.50	0
  81.52	0
  81.53	0
  81.55	0
  81.56	0
  81.58	0
  81.59	0
  81.61	0
  81.63	0
  81.64	0
  81.66	0
  81.67	0
  81.69	0
  81.70	0
  81.72	0
  81.73	0
  81.75	0
  81.77	0
  81.78	0
  81.80	0
  81.81	0
  81.83	0
  81.84	0
  81.86	0
  81.88	0
  81.89	0
  81.91	0
  81.92	0
  81.94	0
  81.95	0
  81.97	0
  81.98	0
  82.00	0
  82.02	0
  82.03	0
  82.05	0
  82.06	0
  82.08	0
  82.09	0
  82.11	0
  82.13	0
  82.14	0
  82.16	0
  82.17	0
  82.19	0
  82.20	0
  82.22	0
  82.23	0
  82.25	0
  82.27	0
  82.28	0
  82.30	0
  82.31	0
  82.33	0
  82.34	0
  82.36	0
  82.38	0
  82.39	0
  82.41	0
  82.42	0
  82.44	0
  82.45	0
  82.47	0
  82.48	0
  82.50	0
  82.52	0
  82.53	0
  82.55	0
  82.56	0
  82.58	0
  82.59	0
  82.61	0
  82.63	0
  82.64	0
  82.66	0
  82.67	0
  82.69	0
  82.70	0
  82.72	0
  82.73	0
  82.75	0
  82.77	0
  82.78	0
  82.80	0
  82.81	0
  82.83	0
  82.84	0
  82.86	0
  82.88	0
  82.89	0
  82.91	0
  82.92	0
  82.94	0
  82.95	0
  82.97	0
  82.98	0
  83.00	0
  83.02	0
  83.03	0
  83.05	0
  83.06	0
  83.08	0
  83.09	0
  83.11	0
  83.13	0
  83.14	0
  83.16	0
  83.17	0
  83.19	0
  83.20	0
  83.22	0
  83.23	0
  83.25	0
  83.27	0
  83.28	0
  83.30	0
  83.31	0
  83.33	0
  83.34	0
  83.36	0
  83.38	0
  83.39	0
  83.41	0
  83.42	0
  83.44	0
  83.45	0
  83.47	0
  83.48	0
  83.50	0
  83.52	0
  83.53	0
  83.55	0
  83.56	0
  83.58	0
  83.59	0
  83.61	0
  83.63	0
  83.64	0
  83.66	0
  83.67	0
  83.69	0
  83.70	0
  83.72	0
  83.73	0
  83.75	0
  83.77	0
  83.78	31.9898
  83.80	0
  83.81	0
  83.83	0
  83.84	0
  83.86	0
  83.88	0
  83.89	0
  83.91	0
  83.92	31.9898
  83.94	31.9898
  83.95	0
  83.97	63.9795
  83.98	0
  84.00	0
  84.02	0
  84.03	63.9795
  84.05	0
  84.06	31.9898
  84.08	31.9898
  84.09	31.9898
  84.11	31.9898
  84.13	0
  84.14	0
  84.16	31.9898
  84.17	31.9898
  84.19	31.9898
  84.20	31.9898
  84.22	31.9898
  84.23	63.9795
  84.25	0
  84.27	0
  84.28	0
  84.30	95.9693
  84.31	0
  84.33	63.9795
  84.34	0
  84.36	31.9898
  84.38	31.9898
  84.39	31.9898
  84.41	63.9795
  84.42	63.9795
  84.44	63.9795
  84.45	63.9795
  84.47	95.9693
  84.48	63.9795
  84.50	31.9898
  84.52	63.9795
  84.53	95.9693
  84.55	159.949
  84.56	127.959
  84.58	127.959
  84.59	159.949
  84.61	31.9898
  84.63	31.9898
  84.64	127.959
  84.66	95.9693
  84.67	127.959
  84.69	127.959
  84.70	31.9898
  84.72	159.949
  84.73	95.9693
  84.75	191.939
  84.77	95.9693
  84.78	223.928
  84.80	223.928
  84.81	159.949
  84.83	159.949
  84.84	127.959
  84.86	95.9693
  84.88	223.928
  84.89	287.908
  84.91	159.949
  84.92	63.9795
  84.94	223.928
  84.95	159.949
  84.97	191.939
  84.98	191.939
  85.00	255.918
  85.02	255.918
  85.03	319.898
  85.05	319.898
  85.06	255.918
  85.08	31.9898
  85.09	159.949
  85.11	191.939
  85.13	127.959
  85.14	319.898
  85.16	607.806
  85.17	543.826
  85.19	351.888
  85.20	191.939
  85.22	255.918
  85.23	191.939
  85.25	287.908
  85.27	351.888
  85.28	319.898
  85.30	287.908
  85.31	319.898
  85.33	319.898
  85.34	223.928
  85.36	223.928
  85.38	383.877
  85.39	223.928
  85.41	351.888
  85.42	287.908
  85.44	127.959
  85.45	223.928
  85.47	319.898
  85.48	287.908
  85.50	287.908
  85.52	191.939
  85.53	191.939
  85.55	95.9693
  85.56	95.9693
  85.58	191.939
  85.59	159.949
  85.61	159.949
  85.63	95.9693
  85.64	191.939
  85.66	95.9693
  85.67	223.928
  85.69	95.9693
  85.70	95.9693
  85.72	159.949
  85.73	191.939
  85.75	63.9795
  85.77	127.959
  85.78	95.9693
  85.80	127.959
  85.81	63.9795
  85.83	95.9693
  85.84	95.9693
  85.86	31.9898
  85.88	31.9898
  85.89	127.959
  85.91	0
  85.92	63.9795
  85.94	63.9795
  85.95	31.9898
  85.97	127.959
  85.98	31.9898
?	?
