M- 9.3Pa 10W 50-50
Integration time: 1000 ms
Average: 20 scans
Nr of pixels used for smoothing: 0
Data measured with spectrometer serial number: 0501039S2
Wave   ;Sample
[nm]   ;[counts]
200,00;-160,6093
201,00;2,5982
202,00;-81,9009
203,00;-172,5952
204,00;-19,0449
205,00;-108,7547
206,00;-162,6521
207,00;-67,9222
208,00;-18,9664
209,00;95,0787
210,00;-141,6510
211,00;-25,5205
212,00;-111,5765
213,00;-37,6704
214,00;-66,2368
215,00;-51,2570
216,00;-80,6544
217,00;-95,6467
218,00;-118,4980
219,00;-97,7753
220,00;350,3462
221,00;21,1237
222,00;47,1374
223,00;-151,4195
224,00;-158,9082
225,00;76,6286
226,00;-38,7523
227,00;-61,2019
228,00;118,8504
229,00;-111,7050
230,00;15,6922
231,00;-71,7009
232,00;35,1465
233,00;48,1725
234,00;-91,4106
235,00;-37,8940
236,00;-89,0745
237,00;-53,0547
238,00;19,1287
239,00;-5,4036
240,00;-165,1883
241,00;-151,8944
242,00;-67,5976
243,00;-141,7578
244,00;136,7388
245,00;42,9756
246,00;-117,5154
247,00;-162,0332
248,00;5,1390
249,00;25,4993
250,00;-31,2529
251,00;130,4882
252,00;-122,3593
253,00;18,8497
254,00;-237,3616
255,00;-153,9111
256,00;-113,8333
257,00;48,5864
258,00;-52,4663
259,00;2,1384
260,00;-111,8365
261,00;0,8472
262,00;52,0471
263,00;-133,5269
264,00;57,8062
265,00;39,2284
266,00;-10,6181
267,00;177,2825
268,00;-72,9629
269,00;116,6406
270,00;-83,2753
271,00;12,8968
272,00;-12,1285
273,00;-33,5432
274,00;-16,7305
275,00;65,3113
276,00;-23,6956
277,00;-105,0401
278,00;-78,4146
279,00;-82,0692
280,00;-76,3106
281,00;-8,4542
282,00;-10,7007
283,00;2,4722
284,00;-103,0973
285,00;-183,2351
286,00;-32,1264
287,00;-58,0687
288,00;-84,0785
289,00;-79,7784
290,00;-68,2041
291,00;-113,0988
292,00;-106,1382
293,00;-18,9236
294,00;-13,3830
295,00;4,0153
296,00;-106,3670
297,00;-112,9549
298,00;-122,1718
299,00;-109,1673
300,00;-66,4823
301,00;34,3287
302,00;-100,7387
303,00;-82,0225
304,00;-80,9988
305,00;-100,4604
306,00;-44,7174
307,00;47,9965
308,00;1,2836
309,00;-71,3679
310,00;-130,3494
311,00;-16,3446
312,00;-45,8543
313,00;-16,4197
314,00;-45,3825
315,00;-99,0996
316,00;34,1502
317,00;-163,3208
318,00;-97,9612
319,00;16,4563
320,00;-100,3766
321,00;-26,2307
322,00;-111,4462
323,00;-157,0080
324,00;-25,4697
325,00;78,2696
326,00;-41,1506
327,00;-130,3714
328,00;-74,6110
329,00;-3,4012
330,00;-72,7183
331,00;-93,1819
332,00;10,5358
333,00;-50,8621
334,00;-32,3885
335,00;-142,1717
336,00;-80,7798
337,00;68,6003
338,00;-16,9068
339,00;-23,1761
340,00;-37,2338
341,00;-108,4300
342,00;-64,2436
343,00;14,3380
344,00;-28,3744
345,00;-97,3249
346,00;178,3577
347,00;-94,8509
348,00;-82,3080
349,00;-147,4236
350,00;-67,3906
351,00;4,6601
352,00;-15,0423
353,00;-91,9427
354,00;75,4297
355,00;-164,7172
356,00;-22,6364
357,00;-51,0585
358,00;91,1740
359,00;24,0295
360,00;-65,8000
361,00;-140,4668
362,00;-150,2062
363,00;-133,1243
364,00;-124,2865
365,00;-17,2506
366,00;-28,8527
367,00;126,4495
368,00;-112,5377
369,00;9,4393
370,00;-9,5466
371,00;-25,1000
372,00;-141,4713
373,00;-81,2912
374,00;-112,3079
375,00;36,0172
376,00;-53,6875
377,00;39,2789
378,00;-117,4244
379,00;41,8249
380,00;86,2400
381,00;-99,0836
382,00;-1,8329
383,00;-65,8847
384,00;-2,7091
385,00;-56,2813
386,00;59,1838
387,00;-98,4607
388,00;-89,9574
389,00;-82,1430
390,00;24,2329
391,00;109,8112
392,00;57,5904
393,00;-136,1764
394,00;-78,5666
395,00;76,8798
396,00;50,1862
397,00;-132,5271
398,00;-64,4657
399,00;-12,2782
400,00;-88,2191
401,00;-70,1662
402,00;-139,7398
403,00;-106,1476
404,00;127,0605
405,00;184,8944
406,00;98,5387
407,00;-70,9854
408,00;-75,7149
409,00;32,5733
410,00;-102,3221
411,00;16,8098
412,00;52,4963
413,00;-9,6424
414,00;-60,4618
415,00;104,4173
416,00;512,6731
417,00;12,9140
418,00;239,2482
419,00;745,2299
420,00;1171,3330
421,00;-118,2004
422,00;-23,1775
423,00;15,6755
424,00;69,7997
425,00;349,5502
426,00;1051,1920
427,00;478,5919
428,00;103,2793
429,00;72,2752
430,00;297,4673
431,00;143,5807
432,00;-50,0992
433,00;300,2067
434,00;112,9874
435,00;-89,8057
436,00;10,4359
437,00;139,8317
438,00;45,3523
439,00;110,0368
440,00;-29,9811
441,00;-58,9078
442,00;-50,2976
443,00;112,6247
444,00;31,9359
445,00;133,5106
446,00;-27,9074
447,00;-72,6192
448,00;-130,6634
449,00;-34,0745
450,00;43,3232
451,00;470,0050
452,00;8,0439
453,00;-8,5178
454,00;-41,3524
455,00;-65,4659
456,00;-63,6183
457,00;34,1331
458,00;1,3079
459,00;-42,3049
460,00;-86,4181
461,00;-36,7444
462,00;-92,4837
463,00;56,8004
464,00;-24,3421
465,00;190,6993
466,00;47,1224
467,00;7,0324
468,00;-107,3011
469,00;5,0350
470,00;-48,0772
471,00;-15,7351
472,00;-40,2674
473,00;34,0414
474,00;-94,0224
475,00;95,3852
476,00;18,9083
477,00;-1,6671
478,00;9,3406
479,00;32,2846
480,00;56,4232
481,00;35,0587
482,00;-72,5899
483,00;-11,5980
484,00;2,8143
485,00;-88,7666
486,00;-29,2661
487,00;32,7268
488,00;80,1969
489,00;90,6334
490,00;-123,0970
491,00;173,5607
492,00;41,2408
493,00;-76,8439
494,00;104,4808
495,00;91,4457
496,00;29,8708
497,00;46,3722
498,00;175,0214
499,00;80,9293
500,00;-44,4403
501,00;40,2132
502,00;-34,8493
503,00;-33,1117
504,00;1,6721
505,00;115,7549
506,00;19,7695
507,00;1,4275
508,00;-19,3195
509,00;68,7122
510,00;-3,1522
511,00;-113,0496
512,00;48,5361
513,00;-35,4016
514,00;27,3598
515,00;12,5598
516,00;352,7901
517,00;-12,6384
518,00;59,7514
519,00;162,8662
520,00;-87,4818
521,00;104,0694
522,00;280,1493
523,00;237,3515
524,00;179,7243
525,00;452,6088
526,00;364,1892
527,00;226,5092
528,00;289,5081
529,00;171,2466
530,00;204,0493
531,00;50,0856
532,00;-55,5888
533,00;44,3056
534,00;-68,8720
535,00;-15,9665
536,00;7,1882
537,00;32,9918
538,00;55,1725
539,00;-63,5917
540,00;-159,0432
541,00;-83,3147
542,00;125,4892
543,00;81,7257
544,00;274,1093
545,00;219,2317
546,00;35,6003
547,00;-63,7381
548,00;87,1540
549,00;190,9085
550,00;340,2910
551,00;39,9613
552,00;66,0669
553,00;293,8864
554,00;24,7910
555,00;256,6485
556,00;543,1147
557,00;539,8232
558,00;819,0862
559,00;850,3677
560,00;1054,6280
561,00;842,8790
562,00;644,5112
563,00;254,4123
564,00;104,7804
565,00;156,1811
566,00;21,8189
567,00;92,4681
568,00;205,9811
569,00;17,5092
570,00;45,3892
571,00;142,6419
572,00;67,6175
573,00;23,2015
574,00;250,9190
575,00;67,1675
576,00;-71,8331
577,00;15,5392
578,00;-52,7434
579,00;9,6796
580,00;124,1555
581,00;161,0326
582,00;81,3308
583,00;60,1114
584,00;75,2581
585,00;45,0307
586,00;342,2068
587,00;158,3623
588,00;219,9712
589,00;282,5213
590,00;150,5505
591,00;436,8698
592,00;128,3755
593,00;233,9788
594,00;72,9724
595,00;142,6000
596,00;247,2548
597,00;533,8310
598,00;364,8360
599,00;426,5059
600,00;255,7387
601,00;222,1034
602,00;276,6604
603,00;854,5486
604,00;427,1311
605,00;388,9247
606,00;104,8346
607,00;-57,0695
608,00;28,7166
609,00;-53,0335
610,00;51,3120
611,00;104,8762
612,00;-7,5036
613,00;-28,5004
614,00;-14,8340
615,00;21,7370
616,00;91,0905
617,00;46,8140
618,00;203,0022
619,00;4,3761
620,00;-58,9796
621,00;141,1169
622,00;43,6381
623,00;7,4374
624,00;-187,5189
625,00;-110,4267
626,00;6,8979
627,00;117,7725
628,00;-30,4688
629,00;-11,7541
630,00;24,0350
631,00;39,2675
632,00;42,0341
633,00;3,3449
634,00;95,3723
635,00;246,4915
636,00;339,2093
637,00;97,3675
638,00;165,2501
639,00;93,4437
640,00;51,6470
641,00;241,0272
642,00;215,9309
643,00;75,9324
644,00;-67,4998
645,00;112,2966
646,00;29,9089
647,00;49,0877
648,00;-163,3690
649,00;99,3195
650,00;-63,5456
651,00;-76,0234
652,00;-32,7638
653,00;86,6336
654,00;37,3885
655,00;-132,5283
656,00;-99,8138
657,00;54,4532
658,00;55,8596
659,00;143,4901
660,00;127,3193
661,00;-27,6164
662,00;-28,5928
663,00;-31,6038
664,00;-21,1248
665,00;-54,9423
666,00;63,8366
667,00;35,2372
668,00;201,3045
669,00;-28,7525
670,00;262,3990
671,00;-61,1896
672,00;-74,3194
673,00;-45,1089
674,00;4,6104
675,00;438,5709
676,00;102,8874
677,00;185,9333
678,00;29,6029
679,00;74,8951
680,00;74,8833
681,00;72,4056
682,00;-29,9700
683,00;115,5169
684,00;135,9608
685,00;72,7912
686,00;-9,6113
687,00;234,6610
688,00;-36,2323
689,00;-70,5900
690,00;-14,1667
691,00;-79,8897
692,00;105,3189
693,00;59,8333
694,00;105,9490
695,00;5,7343
696,00;547,8014
697,00;381,6966
698,00;95,8528
699,00;28,0660
700,00;56,7919
701,00;19,3621
702,00;-51,7221
703,00;262,1938
704,00;-15,3058
705,00;38,4365
706,00;277,3319
707,00;705,7107
708,00;-12,6583
709,00;96,4203
710,00;265,8177
711,00;-84,2963
712,00;22,6467
713,00;-124,4849
714,00;35,2915
715,00;97,4255
716,00;-12,4303
717,00;-56,5181
718,00;-29,6957
719,00;137,6126
720,00;53,4385
721,00;114,6694
722,00;-151,4214
723,00;-32,9679
724,00;-44,2740
725,00;-14,1873
726,00;29,2225
727,00;232,0996
728,00;126,2357
729,00;-31,0183
730,00;-118,2941
731,00;60,4473
732,00;-99,5593
733,00;-73,7750
734,00;102,0094
735,00;92,8628
736,00;191,4961
737,00;405,6619
738,00;1002,8590
739,00;509,4196
740,00;31,1429
741,00;253,7635
742,00;172,9512
743,00;114,7137
744,00;465,0983
745,00;94,6890
746,00;48,1304
747,00;33,2275
748,00;-37,8031
749,00;10,3355
750,00;3758,2250
751,00;3127,5120
752,00;917,2732
753,00;86,5946
754,00;15,9187
755,00;18,6227
756,00;-4,3981
757,00;-7,3168
758,00;-198,4022
759,00;-75,3928
760,00;157,1629
761,00;214,3600
762,00;-9,0217
763,00;1843,0280
764,00;1158,6110
765,00;-64,9463
766,00;12,2717
767,00;-88,7016
768,00;-111,3323
769,00;-55,7247
770,00;-70,5572
771,00;-71,5393
772,00;597,6839
773,00;298,2038
774,00;-19,7956
775,00;-99,5200
776,00;87,7602
777,00;2330,1270
778,00;899,2234
779,00;-7,5861
780,00;3,4804
781,00;-90,8119
782,00;-80,3841
783,00;39,5431
784,00;85,0876
785,00;-127,5210
786,00;-91,0727
787,00;-9,4182
788,00;-15,2203
789,00;-31,3356
790,00;-42,1446
791,00;-98,3523
792,00;-91,0625
793,00;-78,4754
794,00;272,8010
795,00;491,2841
796,00;31,0215
797,00;27,0987
798,00;-33,7718
799,00;-83,2310
800,00;271,0823
801,00;570,1168
802,00;264,8599
803,00;-63,6831
804,00;-147,8698
805,00;1,0816
806,00;-148,9156
807,00;71,1154
808,00;-67,6169
809,00;-29,2120
810,00;764,1453
811,00;1780,0860
812,00;1296,1850
813,00;-41,6358
814,00;-1,5993
815,00;-76,8111
816,00;-90,1315
817,00;28,1816
818,00;-64,6995
819,00;-19,3643
820,00;-56,4847
821,00;15,3111
822,00;-35,5776
823,00;-155,3097
824,00;-76,5105
825,00;-100,3005
826,00;243,4940
827,00;36,2457
828,00;-66,5596
829,00;-69,2353
830,00;-138,2825
831,00;26,1886
832,00;-190,3312
833,00;-56,2065
834,00;-119,6720
835,00;-105,8187
836,00;-9,6203
837,00;54,3343
838,00;-15,7732
839,00;57,1382
840,00;224,0495
841,00;470,2870
842,00;680,6369
843,00;473,1087
844,00;221,1700
845,00;362,3150
846,00;-41,0816
847,00;-72,1234
848,00;5,5868
849,00;-142,2593
850,00;-141,8604
851,00;-56,0813
852,00;159,1860
853,00;-147,9863
854,00;-32,7332
855,00;-56,0755
856,00;69,3180
857,00;7,3789
858,00;-91,9116
859,00;18,0063
860,00;44,9273
861,00;-53,1311
862,00;-86,5236
863,00;-21,8864
864,00;-112,6436
865,00;-62,5200
866,00;-11,9346
867,00;-60,9996
868,00;-26,9063
869,00;34,3990
870,00;6,2343
871,00;-97,4528
872,00;-94,7169
873,00;-36,4469
874,00;-36,2574
875,00;37,7576
876,00;-76,0758
877,00;205,5160
878,00;-72,1675
879,00;-47,1799
880,00;64,4602
881,00;-32,0703
882,00;-35,8429
883,00;-18,1221
884,00;135,4823
885,00;-101,0045
886,00;-99,5205
887,00;-50,4225
888,00;-35,2399
889,00;-57,2086
890,00;-45,2878
891,00;60,7750
892,00;-82,6582
893,00;64,4439
894,00;-150,2739
895,00;-66,3931
896,00;-129,0148
897,00;-61,1033
898,00;-23,6462
899,00;-55,6965
900,00;-170,4344
901,00;79,2232
902,00;42,8198
903,00;-27,0976
904,00;-35,3546
905,00;3,4179
906,00;-197,1900
907,00;-133,0529
908,00;-128,9703
909,00;-111,2303
910,00;-180,6724
911,00;-36,2028
912,00;641,9180
913,00;276,6282
914,00;26,7696
915,00;-15,4619
916,00;-46,7738
917,00;-46,0168
918,00;-84,1264
919,00;2,8793
920,00;-80,8380
921,00;-81,8139
922,00;23,5134
923,00;14,2403
924,00;-51,7623
925,00;25,1382
926,00;100,3207
927,00;121,6809
928,00;-42,6879
929,00;-44,2356
930,00;-126,0806
931,00;-92,2633
932,00;-86,9913
933,00;-93,0113
934,00;-15,6161
935,00;-18,6100
936,00;122,5338
937,00;64,0024
938,00;62,5928
939,00;-23,3144
940,00;-64,9725
941,00;-130,5325
942,00;-148,9705
943,00;-129,8539
944,00;-153,5016
945,00;10,0094
946,00;-83,9753
947,00;74,2475
948,00;-13,6999
949,00;-88,4873
950,00;-102,8297
951,00;121,3530
952,00;-141,0148
953,00;-106,0708
954,00;-118,8836
955,00;-27,3413
956,00;-152,4287
957,00;-87,7164
958,00;-121,2787
959,00;25,5566
960,00;-109,9262
961,00;-94,5798
962,00;-52,5913
963,00;142,2688
964,00;-34,1228
965,00;-56,7747
966,00;120,6055
967,00;171,3439
968,00;-8,3562
969,00;-85,5415
970,00;-128,8954
971,00;-57,0737
972,00;3,0172
973,00;-14,8308
974,00;-157,1546
975,00;121,5032
976,00;12,1646
977,00;-157,9008
978,00;-89,6339
979,00;-2,2488
980,00;-137,5836
981,00;-50,9359
982,00;-150,5116
983,00;-77,3593
984,00;-177,6258
985,00;-39,6794
986,00;20,4165
987,00;92,5205
988,00;67,4090
989,00;-51,1722
990,00;79,8808
991,00;-112,6740
992,00;-32,4285
993,00;-18,0128
994,00;-174,4269
995,00;-31,1507
996,00;-123,0816
997,00;-42,4294
998,00;-49,4377
999,00;-144,2317
1000,00;113,5277
1001,00;69,7869
1002,00;-65,9710
1003,00;-11,1323
1004,00;-33,4330
1005,00;-73,1494
1006,00;-102,8259
1007,00;-52,7118
1008,00;36,5264
1009,00;-44,5387
1010,00;-17,0649
1011,00;55,5000
1012,00;7,8396
1013,00;-132,3447
1014,00;146,2208
1015,00;139,3605
1016,00;-98,7558
1017,00;-110,2298
1018,00;-40,2788
1019,00;-147,8162
1020,00;-76,7417
1021,00;-50,7224
1022,00;-175,0351
1023,00;-15,4981
1024,00;-62,6102
1025,00;34,6999
1026,00;92,0273
1027,00;-33,5693
1028,00;-8,1159
1029,00;2,3945
1030,00;-51,6924
1031,00;-98,4494
1032,00;-31,2104
1033,00;15,5313
1034,00;-142,8928
1035,00;-160,5595
1036,00;68,5586
1037,00;-98,5045
1038,00;-110,2517
1039,00;5,2979
1040,00;-94,8429
1041,00;14,5102
1042,00;-22,2536
1043,00;95,8746
1044,00;300,0636
1045,00;-36,1888
1046,00;-93,5454
1047,00;45,9626
1048,00;-18,9008
1049,00;-76,2044
1050,00;-77,0904
1051,00;-86,3550
1052,00;-28,0154
1053,00;-180,1630
1054,00;-33,7556
1055,00;-116,7588
1056,00;-112,1768
1057,00;-94,9880
1058,00;80,8142
1059,00;14,8898
1060,00;-31,6671
1061,00;-94,5524
1062,00;-46,0555
1063,00;-115,2457
1064,00;-13,2604
1065,00;-56,2857
1066,00;-19,0074
1067,00;-23,7502
1068,00;-142,8984
1069,00;-84,7503
1070,00;-75,1292
1071,00;-94,6116
1072,00;26,6240
1073,00;16,3086
1074,00;-41,5524
1075,00;-18,2503
1076,00;-73,4355
1077,00;-82,7638
1078,00;-62,4598
1079,00;-21,4614
1080,00;-134,6868
1081,00;-47,9610
1082,00;-75,7699
1083,00;-157,9117
1084,00;-9,1503
1085,00;-43,6931
1086,00;23,2010
1087,00;-72,3155
1088,00;-7,3802
1089,00;90,1765
1090,00;-108,1539
1091,00;91,4607
1092,00;-41,6695
1093,00;75,6619
1094,00;32,2853
1095,00;22,4833
1096,00;-118,3614
1097,00;-67,5917
1098,00;-84,1278
1099,00;-88,6423
1100,00;-80,3404
