M- 12.7Pa 20W 25-50
Integration time: 1000 ms
Average: 20 scans
Nr of pixels used for smoothing: 0
Data measured with spectrometer serial number: 0501039S2
Wave   ;Sample
[nm]   ;[counts]
200,00;-187,5747
201,00;-0,6633
202,00;-98,5576
203,00;-203,6112
204,00;-22,9352
205,00;-127,9476
206,00;-190,5363
207,00;-81,2652
208,00;-21,6092
209,00;120,8823
210,00;-175,1512
211,00;-73,6319
212,00;-133,7476
213,00;-39,3497
214,00;-65,5277
215,00;-59,3341
216,00;-88,6644
217,00;-120,6308
218,00;-55,1829
219,00;-116,8097
220,00;419,4181
221,00;24,3103
222,00;58,9482
223,00;-182,0557
224,00;-179,7817
225,00;88,9285
226,00;-37,6654
227,00;-62,0897
228,00;143,2207
229,00;-122,8909
230,00;17,3318
231,00;-84,5027
232,00;48,6600
233,00;55,7603
234,00;-107,6786
235,00;-36,4353
236,00;-101,4442
237,00;-53,7650
238,00;27,3405
239,00;-0,5981
240,00;-193,3551
241,00;-184,5492
242,00;-84,8122
243,00;-166,1643
244,00;166,2264
245,00;52,7034
246,00;-140,1523
247,00;-192,8566
248,00;14,5582
249,00;38,9690
250,00;-39,6109
251,00;156,4121
252,00;-142,9795
253,00;30,9712
254,00;-282,7018
255,00;-174,2896
256,00;-137,9619
257,00;62,9204
258,00;-62,0194
259,00;4,0215
260,00;-130,3522
261,00;2,6275
262,00;61,4065
263,00;-160,6381
264,00;69,9708
265,00;55,8413
266,00;-14,2370
267,00;215,0908
268,00;-81,7733
269,00;136,6720
270,00;-101,7882
271,00;8,8916
272,00;-62,9294
273,00;-44,8348
274,00;-4,5053
275,00;73,0344
276,00;-28,9527
277,00;-119,7301
278,00;-80,9365
279,00;-98,0108
280,00;-86,6182
281,00;-4,0101
282,00;-6,5221
283,00;-1,3270
284,00;-112,7872
285,00;-209,8742
286,00;-36,1384
287,00;-71,2562
288,00;-94,3063
289,00;-90,0754
290,00;-60,8176
291,00;-131,5305
292,00;-133,4268
293,00;-11,5489
294,00;-21,1871
295,00;16,5547
296,00;-123,2232
297,00;-129,3123
298,00;-141,9344
299,00;-121,8729
300,00;-77,1220
301,00;49,9993
302,00;-111,5088
303,00;-87,8779
304,00;-94,7369
305,00;-112,2610
306,00;-53,6072
307,00;61,0032
308,00;0,4774
309,00;-84,8983
310,00;-149,9769
311,00;-17,9763
312,00;-50,8577
313,00;-10,7246
314,00;-47,9110
315,00;-117,1631
316,00;45,9975
317,00;-185,5653
318,00;-107,9411
319,00;27,0194
320,00;-121,1713
321,00;-24,0499
322,00;-118,9776
323,00;-180,8907
324,00;-22,4635
325,00;98,1839
326,00;-47,1420
327,00;-152,1344
328,00;-82,9100
329,00;-4,2197
330,00;-77,1752
331,00;-107,5567
332,00;9,3875
333,00;-58,0696
334,00;-25,6260
335,00;-153,6372
336,00;-91,3437
337,00;92,7354
338,00;-18,1502
339,00;-27,2264
340,00;-40,2510
341,00;-121,6877
342,00;-78,8075
343,00;18,9208
344,00;-30,4347
345,00;-107,1599
346,00;216,7243
347,00;-110,4211
348,00;-97,7994
349,00;-176,4336
350,00;-77,5884
351,00;6,7554
352,00;-17,6534
353,00;-105,5814
354,00;89,7968
355,00;-194,7867
356,00;-23,6837
357,00;-61,9163
358,00;109,7282
359,00;33,5949
360,00;-73,9715
361,00;-163,0903
362,00;-174,2276
363,00;-151,8984
364,00;-148,5353
365,00;-14,8722
366,00;-24,9948
367,00;161,4087
368,00;-127,6873
369,00;19,3769
370,00;-9,6572
371,00;-29,3480
372,00;-169,1140
373,00;-89,3584
374,00;-129,7784
375,00;47,2196
376,00;-62,2800
377,00;43,7389
378,00;-142,9282
379,00;64,9431
380,00;123,0594
381,00;-111,0683
382,00;4,7576
383,00;-98,4591
384,00;-0,9546
385,00;-54,6479
386,00;81,9403
387,00;-108,4372
388,00;-100,0847
389,00;-94,7866
390,00;39,6348
391,00;157,9995
392,00;75,1781
393,00;-151,5771
394,00;-98,2543
395,00;51,7299
396,00;64,1882
397,00;-144,5769
398,00;-64,3799
399,00;3,9797
400,00;-90,0839
401,00;-80,7223
402,00;-163,0006
403,00;-121,8787
404,00;101,8790
405,00;199,8402
406,00;130,2894
407,00;-78,0228
408,00;-87,2948
409,00;47,8633
410,00;-106,3579
411,00;26,5472
412,00;64,8762
413,00;-3,9151
414,00;-72,6110
415,00;2,0579
416,00;329,8785
417,00;-21,2837
418,00;176,9682
419,00;438,0505
420,00;725,3616
421,00;-172,7249
422,00;-28,7461
423,00;13,9314
424,00;69,3270
425,00;251,0112
426,00;794,6939
427,00;340,2011
428,00;109,6824
429,00;41,8361
430,00;217,4797
431,00;174,6750
432,00;-53,2568
433,00;191,4431
434,00;63,8667
435,00;-114,5352
436,00;17,8129
437,00;194,6243
438,00;64,4060
439,00;139,3719
440,00;-29,6404
441,00;-64,3497
442,00;-54,4125
443,00;133,1496
444,00;42,6016
445,00;161,3853
446,00;-31,4024
447,00;-79,3954
448,00;-144,0585
449,00;-35,5975
450,00;40,0355
451,00;383,0841
452,00;-30,6900
453,00;-19,6959
454,00;-51,6843
455,00;-81,3895
456,00;-73,1562
457,00;44,0508
458,00;-6,2914
459,00;-61,1034
460,00;-103,5306
461,00;-32,2730
462,00;-113,7519
463,00;60,2334
464,00;-26,4178
465,00;225,3576
466,00;67,2282
467,00;19,5378
468,00;-120,2274
469,00;12,8390
470,00;-89,6035
471,00;-21,5950
472,00;-39,3768
473,00;46,5614
474,00;-109,1996
475,00;76,7375
476,00;19,7445
477,00;-31,4117
478,00;18,2383
479,00;46,0133
480,00;65,9053
481,00;51,4222
482,00;-78,8732
483,00;-27,5560
484,00;-4,9617
485,00;-106,6744
486,00;-33,3361
487,00;6,2204
488,00;33,5938
489,00;57,0690
490,00;-143,6045
491,00;202,6148
492,00;47,2731
493,00;-88,4467
494,00;127,8248
495,00;88,8024
496,00;22,0757
497,00;56,4952
498,00;204,9559
499,00;83,9312
500,00;-44,3007
501,00;57,7065
502,00;-35,0091
503,00;-46,9360
504,00;1,3145
505,00;114,6938
506,00;-24,3162
507,00;-22,5915
508,00;-29,3359
509,00;76,9998
510,00;-4,8896
511,00;-145,9903
512,00;39,2125
513,00;-39,6529
514,00;28,1705
515,00;-19,8624
516,00;329,8755
517,00;-25,7444
518,00;15,8995
519,00;103,0530
520,00;-111,2247
521,00;88,3122
522,00;198,7883
523,00;269,2349
524,00;214,7736
525,00;479,7919
526,00;469,1822
527,00;295,7381
528,00;343,5322
529,00;204,6956
530,00;262,3498
531,00;50,9389
532,00;-77,0568
533,00;80,2145
534,00;-73,1634
535,00;-28,4574
536,00;22,6459
537,00;21,9826
538,00;55,3826
539,00;-88,0198
540,00;-180,7609
541,00;-121,7601
542,00;114,7307
543,00;93,8233
544,00;290,6165
545,00;189,8215
546,00;10,8870
547,00;-81,8367
548,00;106,9729
549,00;58,5488
550,00;243,7649
551,00;16,5917
552,00;70,1541
553,00;328,0375
554,00;43,2712
555,00;289,2073
556,00;491,6312
557,00;563,0846
558,00;987,8071
559,00;1046,4930
560,00;1128,0780
561,00;935,9036
562,00;768,5819
563,00;317,5035
564,00;95,4874
565,00;97,5050
566,00;17,9849
567,00;116,9231
568,00;218,9247
569,00;-30,7855
570,00;66,9510
571,00;170,3770
572,00;101,6220
573,00;17,5378
574,00;221,5498
575,00;102,1645
576,00;-71,8027
577,00;5,4641
578,00;-50,5395
579,00;27,8413
580,00;152,0716
581,00;207,9924
582,00;110,5074
583,00;50,2630
584,00;98,6710
585,00;89,8114
586,00;402,8593
587,00;203,7617
588,00;240,4878
589,00;279,2590
590,00;193,7773
591,00;352,0859
592,00;108,3007
593,00;209,9997
594,00;78,5616
595,00;177,7367
596,00;311,4694
597,00;643,4624
598,00;454,3500
599,00;498,9465
600,00;285,5653
601,00;264,0340
602,00;302,1016
603,00;660,0584
604,00;306,1096
605,00;377,4239
606,00;64,9630
607,00;-63,9178
608,00;31,7919
609,00;-78,9766
610,00;-31,0668
611,00;75,2074
612,00;4,7176
613,00;-41,4765
614,00;-33,0412
615,00;-2,4708
616,00;98,9026
617,00;37,2364
618,00;195,7712
619,00;0,4172
620,00;-60,4148
621,00;122,0771
622,00;22,5959
623,00;13,9862
624,00;-215,4504
625,00;-122,1029
626,00;22,1758
627,00;152,4018
628,00;-20,4757
629,00;-28,5883
630,00;-8,3942
631,00;9,7640
632,00;71,9836
633,00;20,4706
634,00;132,5986
635,00;314,8230
636,00;411,4848
637,00;124,5674
638,00;196,9617
639,00;126,5868
640,00;80,3716
641,00;253,3718
642,00;208,8970
643,00;104,0531
644,00;-72,0620
645,00;152,1502
646,00;48,1450
647,00;42,5070
648,00;-185,0639
649,00;127,4347
650,00;-66,1672
651,00;-77,8283
652,00;-23,9755
653,00;117,0472
654,00;42,1466
655,00;-139,5664
656,00;-98,8489
657,00;78,4052
658,00;92,5007
659,00;190,6595
660,00;148,8472
661,00;-21,5111
662,00;-24,3033
663,00;-32,2799
664,00;-3,5439
665,00;-57,3405
666,00;72,2898
667,00;43,5454
668,00;226,7498
669,00;-15,0265
670,00;314,9915
671,00;-63,1046
672,00;-79,8688
673,00;-47,0691
674,00;17,0890
675,00;295,2568
676,00;81,0530
677,00;205,7506
678,00;48,7213
679,00;98,5348
680,00;104,9023
681,00;96,6208
682,00;-25,3037
683,00;144,7091
684,00;181,2278
685,00;95,9219
686,00;-26,1660
687,00;92,6891
688,00;-85,7831
689,00;-110,7947
690,00;-7,9149
691,00;-85,3399
692,00;123,4803
693,00;44,9434
694,00;72,7199
695,00;-23,1568
696,00;324,0832
697,00;250,2940
698,00;114,4689
699,00;30,8827
700,00;77,7459
701,00;34,7114
702,00;-73,0971
703,00;189,1690
704,00;-16,7876
705,00;45,6710
706,00;94,2020
707,00;445,4113
708,00;-28,9951
709,00;140,6261
710,00;310,7486
711,00;-109,4994
712,00;25,0758
713,00;-151,2193
714,00;34,7060
715,00;88,6956
716,00;-19,4812
717,00;-58,1510
718,00;-17,6676
719,00;179,3075
720,00;33,0990
721,00;89,0942
722,00;-174,7907
723,00;-33,5544
724,00;-35,3554
725,00;-5,9335
726,00;25,6363
727,00;179,0143
728,00;138,5444
729,00;-29,8850
730,00;-136,0051
731,00;26,9852
732,00;-130,7833
733,00;-88,5805
734,00;136,5083
735,00;45,4902
736,00;215,2177
737,00;296,5157
738,00;692,4751
739,00;395,0455
740,00;34,9899
741,00;286,3299
742,00;203,3825
743,00;116,1121
744,00;542,2835
745,00;121,6115
746,00;68,9588
747,00;53,7914
748,00;-59,5254
749,00;-24,3796
750,00;2594,0430
751,00;2328,3640
752,00;677,2472
753,00;78,2701
754,00;9,1263
755,00;18,8584
756,00;-4,0060
757,00;-5,7281
758,00;-236,7285
759,00;-75,7803
760,00;235,6589
761,00;283,6133
762,00;-9,7730
763,00;1275,2430
764,00;889,6078
765,00;-70,7434
766,00;18,6313
767,00;-118,0263
768,00;-128,7376
769,00;-58,2407
770,00;-81,4962
771,00;-95,1774
772,00;343,6041
773,00;223,6328
774,00;-19,5603
775,00;-102,8691
776,00;120,0775
777,00;3274,1690
778,00;1482,4380
779,00;23,3438
780,00;18,2532
781,00;-93,2517
782,00;-84,5768
783,00;55,4969
784,00;106,7153
785,00;-148,7840
786,00;-114,9217
787,00;-2,7883
788,00;-13,2670
789,00;-51,4461
790,00;-54,4608
791,00;-122,3815
792,00;-100,7133
793,00;-93,9397
794,00;224,0395
795,00;282,0469
796,00;26,4872
797,00;24,6396
798,00;-43,4328
799,00;-101,5339
800,00;249,2176
801,00;337,7882
802,00;165,2053
803,00;-79,2796
804,00;-186,0524
805,00;2,8947
806,00;-178,0052
807,00;86,4798
808,00;-85,2558
809,00;-46,8181
810,00;474,8266
811,00;1100,4860
812,00;934,1465
813,00;-73,0398
814,00;-0,2599
815,00;-93,7094
816,00;-111,0188
817,00;28,1503
818,00;-77,0708
819,00;-19,2102
820,00;-71,3171
821,00;26,3298
822,00;-40,9131
823,00;-181,9384
824,00;-87,1187
825,00;-112,0576
826,00;168,4838
827,00;-18,6604
828,00;-86,2054
829,00;-73,6011
830,00;-159,6868
831,00;38,5373
832,00;-223,8080
833,00;-63,8086
834,00;-137,0326
835,00;-133,1403
836,00;-7,2562
837,00;58,2563
838,00;-15,5563
839,00;71,3007
840,00;148,6409
841,00;320,0972
842,00;433,0092
843,00;349,3373
844,00;268,1768
845,00;601,7808
846,00;-28,3758
847,00;-76,9978
848,00;13,4373
849,00;-163,1650
850,00;-168,8999
851,00;-101,0498
852,00;70,8706
853,00;-194,2131
854,00;-30,0851
855,00;-63,9419
856,00;95,2221
857,00;5,7110
858,00;-116,4668
859,00;26,1317
860,00;54,2620
861,00;-67,5169
862,00;-106,6340
863,00;-17,5041
864,00;-123,8192
865,00;-64,1269
866,00;-21,6364
867,00;-88,1680
868,00;-32,6720
869,00;53,0398
870,00;11,5148
871,00;-106,1986
872,00;-100,6459
873,00;-43,1708
874,00;-30,1856
875,00;61,1512
876,00;-92,1154
877,00;248,8281
878,00;-76,5939
879,00;-51,9858
880,00;74,6687
881,00;-32,6503
882,00;-36,9214
883,00;-18,1707
884,00;168,3227
885,00;-111,0062
886,00;-110,9086
887,00;-54,2568
888,00;-40,2149
889,00;-60,1160
890,00;-47,2576
891,00;77,3974
892,00;-95,6435
893,00;86,6589
894,00;-172,8879
895,00;-70,6671
896,00;-145,9949
897,00;-67,3999
898,00;-21,0348
899,00;-59,1677
900,00;-199,1166
901,00;104,9299
902,00;57,7784
903,00;-22,5338
904,00;-38,3077
905,00;5,0903
906,00;-233,3743
907,00;-157,6908
908,00;-149,8621
909,00;-118,6310
910,00;-213,2829
911,00;-53,9666
912,00;409,2515
913,00;259,8694
914,00;34,0874
915,00;-18,2294
916,00;-58,0318
917,00;-45,8195
918,00;-99,7945
919,00;-2,8281
920,00;-104,6509
921,00;-86,7855
922,00;-19,2578
923,00;-18,0262
924,00;-62,0824
925,00;30,8090
926,00;146,0812
927,00;161,0904
928,00;-44,7405
929,00;-58,6136
930,00;-146,7132
931,00;-112,3180
932,00;-94,2270
933,00;-112,6739
934,00;-14,7573
935,00;-20,4983
936,00;145,7930
937,00;74,7155
938,00;82,9131
939,00;-25,0737
940,00;-69,4048
941,00;-150,0624
942,00;-162,9262
943,00;-143,2690
944,00;-174,0652
945,00;11,6415
946,00;-94,8482
947,00;91,7618
948,00;-10,4574
949,00;-102,2711
950,00;-105,6220
951,00;113,6372
952,00;-165,0797
953,00;-118,9696
954,00;-140,3875
955,00;-28,9286
956,00;-173,8365
957,00;-99,6767
958,00;-138,8655
959,00;28,9559
960,00;-125,0272
961,00;-111,0000
962,00;-55,2267
963,00;173,7646
964,00;-39,4370
965,00;-87,3993
966,00;108,9733
967,00;200,7659
968,00;1,3297
969,00;-99,3042
970,00;-150,0038
971,00;-65,3589
972,00;10,8652
973,00;-9,5075
974,00;-180,4665
975,00;143,2521
976,00;19,0473
977,00;-184,7422
978,00;-108,2240
979,00;1,7060
980,00;-168,9078
981,00;-55,7684
982,00;-157,7686
983,00;-80,7034
984,00;-213,5875
985,00;-40,7867
986,00;28,0124
987,00;114,8513
988,00;71,5835
989,00;-49,4703
990,00;106,3313
991,00;-129,5277
992,00;-42,9259
993,00;-19,9220
994,00;-208,9902
995,00;-34,6396
996,00;-141,0906
997,00;-49,1934
998,00;-51,4794
999,00;-164,3483
1000,00;149,1592
1001,00;86,4321
1002,00;-64,4958
1003,00;-7,7876
1004,00;-37,2489
1005,00;-79,3520
1006,00;-120,8086
1007,00;-55,1846
1008,00;46,7748
1009,00;-55,7027
1010,00;-22,7828
1011,00;68,7125
1012,00;15,0464
1013,00;-149,3729
1014,00;174,7114
1015,00;183,2680
1016,00;-111,0706
1017,00;-130,4111
1018,00;-41,1649
1019,00;-169,3215
1020,00;-83,9726
1021,00;-54,1448
1022,00;-217,3356
1023,00;-17,7451
1024,00;-68,3705
1025,00;47,4632
1026,00;113,4711
1027,00;-37,3206
1028,00;-2,2576
1029,00;10,3690
1030,00;-60,7128
1031,00;-110,0339
1032,00;-35,4454
1033,00;19,2719
1034,00;-164,4014
1035,00;-193,1115
1036,00;95,6970
1037,00;-114,3953
1038,00;-119,3261
1039,00;11,2283
1040,00;-112,1365
1041,00;16,2936
1042,00;-28,7279
1043,00;108,9523
1044,00;359,8134
1045,00;-40,7416
1046,00;-106,2181
1047,00;62,1961
1048,00;-17,7091
1049,00;-86,4572
1050,00;-82,9901
1051,00;-91,3696
1052,00;-41,3337
1053,00;-209,0864
1054,00;-26,0403
1055,00;-147,5303
1056,00;-129,8940
1057,00;-108,3331
1058,00;94,4258
1059,00;21,5149
1060,00;-38,2573
1061,00;-115,1839
1062,00;-54,0368
1063,00;-131,2816
1064,00;-7,8471
1065,00;-61,6439
1066,00;-20,2292
1067,00;-17,2428
1068,00;-169,9040
1069,00;-96,7942
1070,00;-78,5257
1071,00;-109,2576
1072,00;34,4285
1073,00;17,2019
1074,00;-46,7967
1075,00;-10,6457
1076,00;-89,4293
1077,00;-89,2225
1078,00;-69,4828
1079,00;-23,9400
1080,00;-152,3571
1081,00;-56,5680
1082,00;-85,8481
1083,00;-190,6505
1084,00;-19,0594
1085,00;-39,1534
1086,00;25,3421
1087,00;-80,1390
1088,00;-7,8045
1089,00;113,2799
1090,00;-121,8386
1091,00;116,9252
1092,00;-60,5278
1093,00;99,5689
1094,00;38,6089
1095,00;29,7009
1096,00;-134,2485
1097,00;-83,3890
1098,00;-97,6564
1099,00;-106,0266
1100,00;-98,3391
