M- 12.7Pa 15W 25-50
Integration time: 1000 ms
Average: 20 scans
Nr of pixels used for smoothing: 0
Data measured with spectrometer serial number: 0501039S2
Wave   ;Sample
[nm]   ;[counts]
200,00;-190,0882
201,00;3,8053
202,00;-99,3464
203,00;-207,6612
204,00;-17,1451
205,00;-134,6171
206,00;-189,3371
207,00;-77,7739
208,00;-34,8910
209,00;120,1806
210,00;-169,7034
211,00;-83,5925
212,00;-131,3461
213,00;-35,0083
214,00;-72,2678
215,00;-59,6014
216,00;-89,0625
217,00;-123,5995
218,00;-52,2108
219,00;-114,1823
220,00;426,7958
221,00;24,1748
222,00;55,2627
223,00;-186,1183
224,00;-178,5006
225,00;88,8165
226,00;-41,3800
227,00;-68,6115
228,00;135,4951
229,00;-121,6331
230,00;17,3464
231,00;-79,2706
232,00;50,4817
233,00;66,7470
234,00;-102,1396
235,00;-26,9070
236,00;-101,0994
237,00;-52,2489
238,00;23,0618
239,00;-1,9921
240,00;-193,5922
241,00;-176,6078
242,00;-79,8683
243,00;-168,8835
244,00;171,8129
245,00;52,4806
246,00;-139,5221
247,00;-187,0681
248,00;7,9105
249,00;39,5577
250,00;-34,5712
251,00;160,5847
252,00;-144,3745
253,00;37,1434
254,00;-275,7013
255,00;-178,3531
256,00;-131,8939
257,00;53,9538
258,00;-56,3898
259,00;6,9491
260,00;-132,0058
261,00;0,1036
262,00;60,4675
263,00;-163,3250
264,00;76,4232
265,00;54,5149
266,00;-12,7006
267,00;217,9815
268,00;-78,9865
269,00;145,9225
270,00;-98,4033
271,00;11,1267
272,00;-54,2261
273,00;-42,1232
274,00;-55,5067
275,00;77,6029
276,00;-32,4778
277,00;-116,7610
278,00;-79,0554
279,00;-93,0153
280,00;-86,2601
281,00;-7,6021
282,00;0,7900
283,00;4,8973
284,00;-115,4737
285,00;-212,1249
286,00;-32,4861
287,00;-65,8986
288,00;-98,7498
289,00;-99,2281
290,00;-60,4598
291,00;-127,0642
292,00;-122,2124
293,00;-15,5299
294,00;-17,0024
295,00;6,8582
296,00;-122,5087
297,00;-127,3969
298,00;-138,1442
299,00;-125,9375
300,00;-70,3036
301,00;41,9335
302,00;-109,4774
303,00;-86,2772
304,00;-89,0315
305,00;-110,3230
306,00;-58,2009
307,00;63,7284
308,00;11,5676
309,00;-79,6173
310,00;-148,1824
311,00;-12,7174
312,00;-48,2667
313,00;-8,7891
314,00;-46,1139
315,00;-119,5176
316,00;40,0417
317,00;-183,2570
318,00;-106,7858
319,00;30,5492
320,00;-115,5166
321,00;-20,4442
322,00;-114,9925
323,00;-189,1566
324,00;-29,6548
325,00;96,6286
326,00;-40,6339
327,00;-151,3297
328,00;-86,4649
329,00;-4,0367
330,00;-78,2431
331,00;-107,4449
332,00;12,8543
333,00;-60,7598
334,00;-29,0430
335,00;-156,5844
336,00;-87,2872
337,00;92,0526
338,00;-25,5005
339,00;-32,0100
340,00;-39,2055
341,00;-118,6280
342,00;-79,9193
343,00;14,0517
344,00;-24,1417
345,00;-110,3701
346,00;222,0712
347,00;-113,9648
348,00;-92,8529
349,00;-179,0670
350,00;-81,1548
351,00;-2,7526
352,00;-14,6379
353,00;-108,5681
354,00;91,8499
355,00;-195,1127
356,00;-19,9885
357,00;-57,6051
358,00;103,8528
359,00;31,0015
360,00;-76,3891
361,00;-164,0277
362,00;-169,8257
363,00;-150,7743
364,00;-150,4422
365,00;-9,4400
366,00;-30,0978
367,00;153,0684
368,00;-121,5330
369,00;19,9451
370,00;-3,5977
371,00;-27,0702
372,00;-172,9017
373,00;-89,0745
374,00;-128,6593
375,00;43,8144
376,00;-57,7402
377,00;49,1162
378,00;-141,0395
379,00;59,7357
380,00;122,8306
381,00;-111,7034
382,00;-1,3238
383,00;-99,0833
384,00;-6,5339
385,00;-59,0448
386,00;76,6124
387,00;-119,4708
388,00;-101,0727
389,00;-95,0234
390,00;41,1815
391,00;144,3334
392,00;75,5592
393,00;-161,1652
394,00;-115,6278
395,00;40,5402
396,00;58,4514
397,00;-153,9356
398,00;-73,2390
399,00;-5,2351
400,00;-93,5572
401,00;-82,5788
402,00;-169,6143
403,00;-120,3795
404,00;88,5208
405,00;181,8559
406,00;127,8903
407,00;-85,3433
408,00;-85,7367
409,00;32,2740
410,00;-128,4166
411,00;9,5917
412,00;58,4227
413,00;-20,6803
414,00;-83,9012
415,00;-16,6056
416,00;281,0169
417,00;-40,1578
418,00;159,4837
419,00;385,1502
420,00;628,8647
421,00;-180,1211
422,00;-40,8212
423,00;3,9258
424,00;59,7902
425,00;229,4230
426,00;719,6966
427,00;310,8367
428,00;89,3837
429,00;31,1501
430,00;189,0311
431,00;170,1530
432,00;-74,6919
433,00;150,2784
434,00;40,6918
435,00;-135,7173
436,00;-7,1207
437,00;154,5047
438,00;54,3918
439,00;128,0812
440,00;-43,4692
441,00;-69,1389
442,00;-57,6615
443,00;123,8767
444,00;33,2903
445,00;160,2916
446,00;-36,3145
447,00;-85,5598
448,00;-159,7750
449,00;-41,8043
450,00;11,4672
451,00;362,7256
452,00;-42,5747
453,00;-12,6825
454,00;-62,5327
455,00;-88,5558
456,00;-86,8503
457,00;40,5020
458,00;-17,5641
459,00;-82,9363
460,00;-122,2127
461,00;-42,5804
462,00;-124,4083
463,00;55,4699
464,00;-42,9390
465,00;209,1803
466,00;52,9078
467,00;3,5190
468,00;-131,4079
469,00;-0,6274
470,00;-103,4296
471,00;-30,2937
472,00;-49,8812
473,00;30,3068
474,00;-124,1980
475,00;68,6765
476,00;1,7568
477,00;-53,8367
478,00;9,6081
479,00;35,4812
480,00;52,5284
481,00;37,2238
482,00;-87,8605
483,00;-37,5015
484,00;-10,4845
485,00;-111,8635
486,00;-43,5665
487,00;-9,7723
488,00;15,9121
489,00;35,7694
490,00;-146,9673
491,00;192,0431
492,00;38,4004
493,00;-100,0603
494,00;121,1469
495,00;81,4973
496,00;11,4073
497,00;36,3865
498,00;197,3239
499,00;68,6878
500,00;-64,7070
501,00;42,6082
502,00;-43,7621
503,00;-54,0144
504,00;-9,1640
505,00;105,6192
506,00;-40,9282
507,00;-38,7290
508,00;-38,8130
509,00;59,1535
510,00;-18,8117
511,00;-158,2214
512,00;30,9284
513,00;-52,0783
514,00;20,2721
515,00;-42,6081
516,00;312,4158
517,00;-35,8137
518,00;1,5454
519,00;69,7324
520,00;-131,8623
521,00;68,0784
522,00;151,4267
523,00;218,5806
524,00;139,2691
525,00;370,8398
526,00;362,1490
527,00;225,0868
528,00;275,1065
529,00;165,5070
530,00;233,5376
531,00;31,8266
532,00;-95,2887
533,00;50,0271
534,00;-88,2396
535,00;-38,6066
536,00;7,7904
537,00;1,6157
538,00;37,2568
539,00;-106,2517
540,00;-196,3802
541,00;-132,8261
542,00;103,7676
543,00;73,0696
544,00;258,8945
545,00;170,1190
546,00;-11,7335
547,00;-99,1860
548,00;90,9087
549,00;25,6306
550,00;203,2387
551,00;-3,1610
552,00;47,7293
553,00;305,3983
554,00;-7,0056
555,00;225,7860
556,00;384,4523
557,00;448,7405
558,00;789,5779
559,00;832,2214
560,00;941,5010
561,00;756,1791
562,00;634,3013
563,00;228,6683
564,00;56,5583
565,00;75,9595
566,00;-7,4402
567,00;99,2143
568,00;196,0344
569,00;-50,7642
570,00;57,8159
571,00;165,3980
572,00;80,8929
573,00;7,8183
574,00;209,0058
575,00;83,5031
576,00;-88,8024
577,00;-15,8779
578,00;-68,3322
579,00;16,7772
580,00;131,7331
581,00;187,1947
582,00;90,9116
583,00;18,5993
584,00;61,8245
585,00;53,7557
586,00;373,9819
587,00;157,6049
588,00;182,9068
589,00;229,3624
590,00;154,3287
591,00;311,1158
592,00;65,1072
593,00;169,8064
594,00;45,7044
595,00;128,8977
596,00;245,1300
597,00;542,4766
598,00;360,2151
599,00;422,1437
600,00;208,9051
601,00;187,8358
602,00;247,0240
603,00;576,0850
604,00;253,6180
605,00;357,1711
606,00;43,8912
607,00;-77,5587
608,00;20,1670
609,00;-92,7141
610,00;-56,6107
611,00;56,9292
612,00;-10,4002
613,00;-53,3753
614,00;-44,1797
615,00;-18,1114
616,00;62,8365
617,00;3,6212
618,00;172,2680
619,00;-8,8219
620,00;-72,4235
621,00;101,1881
622,00;12,3946
623,00;2,0534
624,00;-224,0542
625,00;-134,8614
626,00;14,9230
627,00;140,4321
628,00;-37,1755
629,00;-56,7723
630,00;-36,2258
631,00;-3,0399
632,00;45,2548
633,00;1,6491
634,00;92,8912
635,00;264,9112
636,00;353,1826
637,00;66,3798
638,00;131,2182
639,00;76,2496
640,00;33,2043
641,00;206,4367
642,00;166,5529
643,00;90,3459
644,00;-78,3954
645,00;130,8541
646,00;25,4925
647,00;26,4036
648,00;-195,0121
649,00;120,2669
650,00;-78,2796
651,00;-90,8450
652,00;-38,5537
653,00;111,5884
654,00;24,6140
655,00;-146,3276
656,00;-114,4296
657,00;65,7682
658,00;79,1725
659,00;171,5370
660,00;129,1255
661,00;-39,7471
662,00;-25,3076
663,00;-35,1812
664,00;-17,6751
665,00;-70,4922
666,00;55,8279
667,00;18,6570
668,00;203,6976
669,00;-37,1041
670,00;301,8886
671,00;-75,8068
672,00;-109,5617
673,00;-66,0007
674,00;-7,6535
675,00;248,1016
676,00;43,4054
677,00;180,0050
678,00;18,8035
679,00;73,4518
680,00;85,2864
681,00;69,5803
682,00;-48,7457
683,00;125,3197
684,00;165,0817
685,00;78,0756
686,00;-41,1951
687,00;65,2022
688,00;-89,7526
689,00;-125,1226
690,00;-14,8086
691,00;-89,6510
692,00;117,1876
693,00;30,9430
694,00;63,1713
695,00;-29,6453
696,00;284,4662
697,00;217,6758
698,00;105,6064
699,00;24,9096
700,00;64,7783
701,00;24,4320
702,00;-80,9122
703,00;168,9664
704,00;-28,5026
705,00;36,5952
706,00;55,5026
707,00;383,5322
708,00;-48,0375
709,00;125,2846
710,00;297,5852
711,00;-113,9357
712,00;12,8739
713,00;-166,2221
714,00;20,2967
715,00;79,5786
716,00;-38,7212
717,00;-74,7058
718,00;-33,9764
719,00;166,3233
720,00;17,7176
721,00;76,6176
722,00;-176,2445
723,00;-42,4310
724,00;-45,8696
725,00;-15,9410
726,00;17,8594
727,00;148,0306
728,00;121,5951
729,00;-39,5690
730,00;-147,4088
731,00;16,0345
732,00;-135,9612
733,00;-93,0488
734,00;123,1200
735,00;24,7759
736,00;204,2390
737,00;264,8242
738,00;621,9657
739,00;347,8227
740,00;28,2214
741,00;275,4434
742,00;192,3973
743,00;99,1968
744,00;536,6507
745,00;121,3550
746,00;62,8794
747,00;43,2750
748,00;-68,6246
749,00;-35,2314
750,00;2310,6270
751,00;2088,3170
752,00;590,4369
753,00;61,4613
754,00;6,6589
755,00;4,6649
756,00;-12,9756
757,00;-12,3498
758,00;-242,3790
759,00;-83,0405
760,00;219,6705
761,00;282,0119
762,00;-24,5348
763,00;1147,9360
764,00;804,9769
765,00;-88,5689
766,00;16,4422
767,00;-112,2208
768,00;-133,4967
769,00;-63,5381
770,00;-83,7372
771,00;-101,4322
772,00;279,7676
773,00;187,6586
774,00;-26,1780
775,00;-108,3318
776,00;104,5984
777,00;2826,1360
778,00;1276,7480
779,00;5,2060
780,00;14,0358
781,00;-103,7614
782,00;-92,1015
783,00;49,9116
784,00;104,6509
785,00;-147,6191
786,00;-122,2551
787,00;1,5170
788,00;-10,7302
789,00;-52,8438
790,00;-60,8607
791,00;-129,6259
792,00;-102,4107
793,00;-93,5036
794,00;211,9810
795,00;237,5149
796,00;21,1334
797,00;29,1576
798,00;-48,4408
799,00;-90,5132
800,00;251,1116
801,00;294,2653
802,00;133,2209
803,00;-77,4898
804,00;-181,7032
805,00;3,3979
806,00;-181,9887
807,00;83,5737
808,00;-92,1144
809,00;-58,9276
810,00;421,4496
811,00;977,6088
812,00;837,6393
813,00;-93,0194
814,00;-8,1339
815,00;-90,3936
816,00;-111,0275
817,00;23,8445
818,00;-85,2242
819,00;-23,2140
820,00;-76,1695
821,00;25,5236
822,00;-45,8294
823,00;-182,6942
824,00;-97,3592
825,00;-117,1993
826,00;145,9293
827,00;-26,9000
828,00;-83,9603
829,00;-75,0949
830,00;-165,2213
831,00;27,6747
832,00;-225,7690
833,00;-63,8762
834,00;-140,1395
835,00;-129,4701
836,00;-7,3940
837,00;64,6614
838,00;-19,7037
839,00;74,1480
840,00;129,7129
841,00;274,1802
842,00;385,7101
843,00;310,7394
844,00;207,6491
845,00;504,9695
846,00;-35,8986
847,00;-80,3111
848,00;10,3487
849,00;-170,3373
850,00;-172,8217
851,00;-99,8866
852,00;37,3186
853,00;-195,9808
854,00;-29,0898
855,00;-59,1130
856,00;90,2275
857,00;8,9473
858,00;-112,6187
859,00;31,5613
860,00;59,6956
861,00;-65,2684
862,00;-107,5029
863,00;-22,9808
864,00;-129,0963
865,00;-63,9089
866,00;-20,9850
867,00;-83,2959
868,00;-29,5706
869,00;51,8330
870,00;10,3659
871,00;-115,2239
872,00;-105,4855
873,00;-32,1030
874,00;-32,2956
875,00;57,1712
876,00;-102,5183
877,00;261,4571
878,00;-73,5134
879,00;-49,8976
880,00;71,7427
881,00;-39,0378
882,00;-36,6935
883,00;-21,5561
884,00;147,0274
885,00;-117,3699
886,00;-103,9801
887,00;-58,5124
888,00;-41,3670
889,00;-63,0051
890,00;-38,8114
891,00;78,3696
892,00;-95,0653
893,00;82,4442
894,00;-177,6263
895,00;-66,9814
896,00;-140,4223
897,00;-67,5995
898,00;-11,5479
899,00;-52,9953
900,00;-199,4320
901,00;101,0761
902,00;43,9086
903,00;-31,5568
904,00;-33,8038
905,00;15,5340
906,00;-234,3478
907,00;-160,6010
908,00;-141,9460
909,00;-120,1749
910,00;-220,2483
911,00;-56,9097
912,00;366,6857
913,00;245,7799
914,00;29,6716
915,00;-14,1780
916,00;-59,1467
917,00;-45,0137
918,00;-97,4069
919,00;1,1985
920,00;-105,2284
921,00;-86,2201
922,00;-17,7811
923,00;-9,3456
924,00;-56,8332
925,00;33,8210
926,00;131,9616
927,00;148,5548
928,00;-44,0328
929,00;-57,7800
930,00;-140,4267
931,00;-102,1282
932,00;-85,0083
933,00;-115,2977
934,00;-15,2886
935,00;-16,0449
936,00;143,3804
937,00;79,7313
938,00;80,0705
939,00;-23,1953
940,00;-72,4777
941,00;-154,9644
942,00;-160,3518
943,00;-141,5062
944,00;-174,6524
945,00;14,1538
946,00;-91,6359
947,00;96,4970
948,00;-15,0981
949,00;-110,0309
950,00;-109,0694
951,00;112,0735
952,00;-171,9359
953,00;-117,8659
954,00;-142,1849
955,00;-16,6852
956,00;-172,2436
957,00;-100,9275
958,00;-137,7549
959,00;40,4967
960,00;-122,5493
961,00;-110,3599
962,00;-54,0701
963,00;177,5056
964,00;-36,2109
965,00;-85,0453
966,00;105,1751
967,00;204,4056
968,00;-1,8656
969,00;-101,0754
970,00;-150,9100
971,00;-62,2158
972,00;12,3200
973,00;-15,0828
974,00;-185,2234
975,00;139,5143
976,00;17,6944
977,00;-182,3146
978,00;-107,9522
979,00;-7,4013
980,00;-162,3748
981,00;-63,0934
982,00;-157,6499
983,00;-84,0196
984,00;-210,9684
985,00;-35,8113
986,00;33,3833
987,00;115,7344
988,00;74,0945
989,00;-56,4973
990,00;34,9738
991,00;-125,9400
992,00;-36,3570
993,00;-9,4326
994,00;-204,4262
995,00;-31,7547
996,00;-142,1936
997,00;-45,5201
998,00;-57,8461
999,00;-168,6460
1000,00;147,4082
1001,00;86,4886
1002,00;-72,0777
1003,00;-4,2889
1004,00;-37,3652
1005,00;-86,4548
1006,00;-115,7910
1007,00;-59,3958
1008,00;57,0976
1009,00;-49,1089
1010,00;-21,3802
1011,00;67,0437
1012,00;15,8345
1013,00;-147,8046
1014,00;180,2543
1015,00;168,3298
1016,00;-116,0275
1017,00;-127,0513
1018,00;-43,3514
1019,00;-169,9858
1020,00;-88,3002
1021,00;-60,6691
1022,00;-212,8592
1023,00;-16,9969
1024,00;-73,0106
1025,00;41,0490
1026,00;118,3580
1027,00;-39,3441
1028,00;-0,2831
1029,00;-4,7494
1030,00;-63,5359
1031,00;-116,3953
1032,00;-36,0200
1033,00;30,1729
1034,00;-165,8349
1035,00;-188,2658
1036,00;89,5450
1037,00;-108,4533
1038,00;-122,4451
1039,00;8,4306
1040,00;-113,4099
1041,00;16,8196
1042,00;-28,6791
1043,00;114,3922
1044,00;357,9047
1045,00;-38,3000
1046,00;-108,6881
1047,00;61,8674
1048,00;-12,0915
1049,00;-85,4749
1050,00;-85,6196
1051,00;-92,6009
1052,00;-34,6328
1053,00;-210,6090
1054,00;-24,5678
1055,00;-147,5597
1056,00;-125,3132
1057,00;-110,2018
1058,00;98,4181
1059,00;22,8699
1060,00;-42,1981
1061,00;-119,2954
1062,00;-55,9576
1063,00;-130,0971
1064,00;3,5280
1065,00;-67,6648
1066,00;-25,8956
1067,00;-21,6933
1068,00;-164,1647
1069,00;-95,6835
1070,00;-80,0288
1071,00;-107,2037
1072,00;33,4109
1073,00;23,3941
1074,00;-41,6370
1075,00;-13,9119
1076,00;-78,0945
1077,00;-95,1683
1078,00;-64,5249
1079,00;-22,5469
1080,00;-152,8568
1081,00;-58,1595
1082,00;-83,1349
1083,00;-189,1888
1084,00;-23,1386
1085,00;-44,6205
1086,00;30,6172
1087,00;-77,9628
1088,00;-8,7165
1089,00;115,9666
1090,00;-124,0178
1091,00;117,9343
1092,00;-62,5269
1093,00;88,3620
1094,00;31,6247
1095,00;31,4275
1096,00;-140,9478
1097,00;-81,4432
1098,00;-92,7333
1099,00;-95,0996
1100,00;-97,8164
