M- 9.2Pa 30W 25-50
Integration time: 1000 ms
Average: 20 scans
Nr of pixels used for smoothing: 0
Data measured with spectrometer serial number: 0501039S2
Wave   ;Sample
[nm]   ;[counts]
200,00;-173,7389
201,00;-2,7747
202,00;-85,2135
203,00;-187,6997
204,00;-16,2150
205,00;-122,3281
206,00;-174,8127
207,00;-71,7396
208,00;-25,3640
209,00;104,4859
210,00;-162,1593
211,00;-22,8257
212,00;-119,4139
213,00;-32,5295
214,00;-68,9700
215,00;-53,7977
216,00;-87,2584
217,00;-112,3076
218,00;-126,5743
219,00;-104,2469
220,00;386,1393
221,00;20,0221
222,00;54,6983
223,00;-167,8517
224,00;-167,9436
225,00;87,1133
226,00;-29,2201
227,00;-65,9646
228,00;136,6691
229,00;-126,1319
230,00;19,7369
231,00;-70,4096
232,00;54,8418
233,00;58,2128
234,00;-92,9633
235,00;-31,4787
236,00;-99,8351
237,00;-51,8615
238,00;22,2949
239,00;-2,2411
240,00;-177,9284
241,00;-164,8504
242,00;-72,5583
243,00;-156,4410
244,00;152,6481
245,00;47,6270
246,00;-124,0126
247,00;-172,8921
248,00;6,7824
249,00;32,8857
250,00;-36,5238
251,00;142,8493
252,00;-132,5157
253,00;25,9499
254,00;-251,6211
255,00;-162,2375
256,00;-122,7546
257,00;54,8755
258,00;-56,3278
259,00;6,7892
260,00;-124,0579
261,00;6,9403
262,00;60,5146
263,00;-143,5696
264,00;71,3245
265,00;46,6378
266,00;-7,9917
267,00;201,3007
268,00;-76,8479
269,00;133,1254
270,00;-94,8178
271,00;9,0118
272,00;-51,4312
273,00;-38,7861
274,00;-24,4090
275,00;82,7875
276,00;-28,1889
277,00;-108,9034
278,00;-80,5937
279,00;-96,2990
280,00;-79,3954
281,00;-3,5313
282,00;-7,2246
283,00;0,8975
284,00;-107,4354
285,00;-192,3413
286,00;-39,1900
287,00;-67,4912
288,00;-87,2911
289,00;-86,8500
290,00;-71,8309
291,00;-110,2156
292,00;-111,7326
293,00;-11,6381
294,00;-3,9484
295,00;11,9324
296,00;-118,9516
297,00;-115,0133
298,00;-130,8600
299,00;-108,4541
300,00;-68,3221
301,00;44,6464
302,00;-100,0010
303,00;-86,2182
304,00;-81,7599
305,00;-106,6712
306,00;-55,9859
307,00;55,7062
308,00;22,9093
309,00;-72,2190
310,00;-135,8965
311,00;-14,7806
312,00;-49,4302
313,00;-5,1101
314,00;-46,5827
315,00;-109,1621
316,00;35,0234
317,00;-177,0909
318,00;-92,7426
319,00;27,8633
320,00;-112,2519
321,00;-25,1095
322,00;-110,2372
323,00;-172,6912
324,00;-23,3537
325,00;86,5175
326,00;-43,4141
327,00;-140,9786
328,00;-76,1645
329,00;5,9212
330,00;-72,0387
331,00;-103,7280
332,00;12,2364
333,00;-55,2683
334,00;-24,3323
335,00;-146,9249
336,00;-87,0440
337,00;81,5546
338,00;-12,2976
339,00;-26,6679
340,00;-34,4558
341,00;-111,5963
342,00;-63,0806
343,00;10,0799
344,00;-19,5431
345,00;-98,5840
346,00;197,4941
347,00;-98,3581
348,00;-89,3416
349,00;-164,9121
350,00;-69,9626
351,00;11,1048
352,00;-8,2083
353,00;-95,2776
354,00;83,1768
355,00;-175,3385
356,00;-21,0327
357,00;-50,3506
358,00;112,3323
359,00;30,3932
360,00;-67,3262
361,00;-157,0136
362,00;-155,0164
363,00;-140,0728
364,00;-140,1097
365,00;-13,2882
366,00;-31,9339
367,00;146,9950
368,00;-116,5363
369,00;20,3544
370,00;-7,3736
371,00;-23,3279
372,00;-151,9860
373,00;-87,4344
374,00;-118,4373
375,00;45,9772
376,00;-49,3280
377,00;54,5016
378,00;-120,6433
379,00;67,6133
380,00;112,8952
381,00;-97,7253
382,00;10,9692
383,00;-72,5307
384,00;12,7379
385,00;-36,9047
386,00;101,7353
387,00;-75,3187
388,00;-71,1331
389,00;-68,4419
390,00;61,7757
391,00;182,9152
392,00;85,9850
393,00;-117,1439
394,00;-55,4076
395,00;103,5985
396,00;99,2488
397,00;-97,4782
398,00;-41,9195
399,00;24,2182
400,00;-71,8496
401,00;-56,0955
402,00;-146,0414
403,00;-102,8291
404,00;95,0399
405,00;211,4723
406,00;141,1919
407,00;-33,1713
408,00;-47,8331
409,00;80,8843
410,00;-73,5365
411,00;47,2692
412,00;91,0399
413,00;15,8361
414,00;-47,5373
415,00;46,9027
416,00;405,2309
417,00;3,5221
418,00;220,8862
419,00;562,9185
420,00;885,8863
421,00;-131,8536
422,00;1,1458
423,00;39,2211
424,00;97,7114
425,00;302,9924
426,00;889,6499
427,00;421,0946
428,00;147,9424
429,00;64,4252
430,00;264,3804
431,00;188,8755
432,00;-23,9650
433,00;271,2228
434,00;123,8473
435,00;-33,6426
436,00;88,0267
437,00;290,4495
438,00;98,9482
439,00;150,8022
440,00;1,7441
441,00;-42,1102
442,00;-25,9433
443,00;147,0724
444,00;45,0103
445,00;154,2782
446,00;-20,4735
447,00;-63,0079
448,00;-127,6166
449,00;-28,4927
450,00;60,8844
451,00;416,6249
452,00;-9,5445
453,00;-4,7826
454,00;-28,1083
455,00;-65,8240
456,00;-61,8293
457,00;43,2505
458,00;19,0412
459,00;-27,5387
460,00;-77,0675
461,00;7,0506
462,00;-93,8224
463,00;81,2889
464,00;10,2920
465,00;260,1342
466,00;98,1500
467,00;34,8150
468,00;-86,2828
469,00;27,8374
470,00;-51,0017
471,00;-3,5232
472,00;-13,8448
473,00;71,5653
474,00;-86,9884
475,00;92,9502
476,00;61,8016
477,00;28,0486
478,00;37,6892
479,00;58,8721
480,00;100,7609
481,00;73,8755
482,00;-52,4251
483,00;4,6984
484,00;18,9657
485,00;-77,4105
486,00;-13,9128
487,00;30,2208
488,00;78,9324
489,00;83,4493
490,00;-131,9563
491,00;197,3588
492,00;46,8909
493,00;-79,7124
494,00;129,4276
495,00;100,1692
496,00;63,6878
497,00;113,9565
498,00;229,1390
499,00;112,8410
500,00;-22,7482
501,00;63,1713
502,00;-22,8703
503,00;-40,2641
504,00;18,8275
505,00;117,7176
506,00;5,8322
507,00;-11,3077
508,00;-26,7355
509,00;81,1647
510,00;8,6837
511,00;-113,9025
512,00;55,6753
513,00;-27,0346
514,00;47,7702
515,00;15,4314
516,00;352,3024
517,00;-4,5629
518,00;42,5766
519,00;151,9405
520,00;-75,4604
521,00;145,1627
522,00;332,7564
523,00;476,3217
524,00;484,1610
525,00;828,8614
526,00;785,9122
527,00;571,6971
528,00;531,3257
529,00;355,7650
530,00;295,6196
531,00;64,2977
532,00;-34,4512
533,00;154,3963
534,00;-49,6644
535,00;-7,2409
536,00;33,0625
537,00;40,9630
538,00;62,2946
539,00;-72,2572
540,00;-167,4046
541,00;-97,1950
542,00;129,3268
543,00;106,0148
544,00;311,0634
545,00;202,9640
546,00;23,3535
547,00;-63,0501
548,00;110,5700
549,00;115,2081
550,00;308,3867
551,00;66,4194
552,00;108,6260
553,00;374,7517
554,00;153,5435
555,00;498,1475
556,00;766,6922
557,00;977,6321
558,00;1695,3220
559,00;1805,0210
560,00;1797,3140
561,00;1531,0310
562,00;1282,8740
563,00;672,0316
564,00;200,4175
565,00;147,9092
566,00;33,6676
567,00;130,0480
568,00;233,4928
569,00;4,8029
570,00;69,9992
571,00;164,4215
572,00;96,6206
573,00;42,1036
574,00;257,9385
575,00;101,8448
576,00;-58,1718
577,00;20,1557
578,00;-40,1128
579,00;38,3101
580,00;164,8363
581,00;227,5053
582,00;151,5980
583,00;137,1995
584,00;167,7857
585,00;157,4145
586,00;482,9975
587,00;335,8491
588,00;378,4035
589,00;385,5530
590,00;274,6268
591,00;496,8112
592,00;225,3572
593,00;299,4346
594,00;168,6231
595,00;288,9786
596,00;526,4093
597,00;987,3337
598,00;783,0683
599,00;798,9256
600,00;581,0058
601,00;517,2443
602,00;507,2939
603,00;840,1973
604,00;390,7799
605,00;391,6671
606,00;89,5786
607,00;-55,1593
608,00;30,3098
609,00;-61,2043
610,00;2,6101
611,00;102,2683
612,00;4,2690
613,00;-28,1588
614,00;-17,2802
615,00;28,6790
616,00;194,5187
617,00;123,5556
618,00;241,5142
619,00;38,3300
620,00;-25,2332
621,00;154,0744
622,00;58,2018
623,00;30,4573
624,00;-181,1923
625,00;-104,0786
626,00;30,3199
627,00;158,2593
628,00;5,4305
629,00;19,9111
630,00;42,4540
631,00;66,6858
632,00;108,4185
633,00;98,2023
634,00;234,9579
635,00;492,2683
636,00;643,2808
637,00;334,7290
638,00;399,4223
639,00;318,3745
640,00;260,9687
641,00;387,1795
642,00;298,7519
643,00;121,4512
644,00;-52,7828
645,00;188,9992
646,00;80,3055
647,00;58,4719
648,00;-167,8162
649,00;123,3933
650,00;-54,9358
651,00;-62,3123
652,00;-12,0978
653,00;114,2666
654,00;49,3007
655,00;-122,0005
656,00;-89,9449
657,00;75,5791
658,00;89,7755
659,00;189,6656
660,00;161,5052
661,00;-5,6253
662,00;-3,8062
663,00;-19,3678
664,00;2,3104
665,00;-39,9554
666,00;91,7414
667,00;63,4276
668,00;247,3680
669,00;39,1980
670,00;364,4280
671,00;-5,3016
672,00;-20,6250
673,00;4,9764
674,00;64,1465
675,00;415,7073
676,00;153,7488
677,00;273,0032
678,00;142,5142
679,00;203,0495
680,00;177,7259
681,00;177,8403
682,00;50,0347
683,00;212,2856
684,00;246,5513
685,00;145,9258
686,00;12,9344
687,00;151,5291
688,00;-55,3041
689,00;-92,1646
690,00;-0,5238
691,00;-74,7932
692,00;120,5028
693,00;48,3026
694,00;89,2109
695,00;-9,4339
696,00;382,4658
697,00;274,8624
698,00;111,9629
699,00;41,6699
700,00;84,8123
701,00;37,7778
702,00;-50,8208
703,00;213,3934
704,00;-6,4972
705,00;68,5949
706,00;150,6735
707,00;506,5683
708,00;-17,6726
709,00;152,0543
710,00;302,1666
711,00;-76,2483
712,00;41,9589
713,00;-124,8167
714,00;54,6478
715,00;119,7438
716,00;23,4751
717,00;-29,2207
718,00;1,8802
719,00;182,9012
720,00;65,3635
721,00;121,4544
722,00;-138,0113
723,00;-6,3531
724,00;-12,5113
725,00;11,9828
726,00;51,8835
727,00;223,5676
728,00;156,0080
729,00;-2,5947
730,00;-108,7567
731,00;59,8467
732,00;-96,5703
733,00;-62,0591
734,00;134,6819
735,00;76,0301
736,00;206,4988
737,00;344,2109
738,00;773,2044
739,00;403,6772
740,00;34,9046
741,00;262,7971
742,00;192,9724
743,00;111,7512
744,00;504,2789
745,00;115,4259
746,00;58,3582
747,00;54,6620
748,00;-43,0766
749,00;-6,1605
750,00;2745,7840
751,00;2415,9180
752,00;713,4205
753,00;81,1922
754,00;6,5107
755,00;21,9649
756,00;-0,4540
757,00;-1,6331
758,00;-210,0605
759,00;-66,6558
760,00;199,9697
761,00;254,9415
762,00;-3,3603
763,00;1377,5640
764,00;916,3826
765,00;-74,9923
766,00;29,5040
767,00;-94,1773
768,00;-108,6287
769,00;-49,9997
770,00;-65,6121
771,00;-71,9297
772,00;396,9533
773,00;236,4960
774,00;-16,2818
775,00;-86,8692
776,00;160,0195
777,00;4161,8120
778,00;1756,2040
779,00;50,7582
780,00;34,7673
781,00;-82,1969
782,00;-72,6318
783,00;57,1101
784,00;108,8363
785,00;-132,7958
786,00;-104,0770
787,00;0,3539
788,00;-8,2121
789,00;-29,8068
790,00;-50,2985
791,00;-108,3771
792,00;-95,2537
793,00;-79,8131
794,00;226,9238
795,00;345,1242
796,00;23,3766
797,00;24,0072
798,00;-35,7809
799,00;-92,9512
800,00;250,6443
801,00;391,6288
802,00;186,2088
803,00;-67,9612
804,00;-165,6680
805,00;1,2945
806,00;-162,8681
807,00;85,9632
808,00;-72,1867
809,00;-41,2694
810,00;543,0777
811,00;1266,1340
812,00;1008,9640
813,00;-68,2891
814,00;-3,3658
815,00;-85,3299
816,00;-96,2560
817,00;23,3836
818,00;-67,3609
819,00;-21,5384
820,00;-65,0711
821,00;24,9096
822,00;-42,4193
823,00;-167,7454
824,00;-83,3254
825,00;-105,1371
826,00;185,7911
827,00;9,6435
828,00;-77,2492
829,00;-64,8065
830,00;-143,3912
831,00;35,7265
832,00;-213,3577
833,00;-59,2448
834,00;-124,4215
835,00;-113,2857
836,00;-4,3201
837,00;56,9348
838,00;-13,6728
839,00;74,4578
840,00;159,6310
841,00;345,5212
842,00;482,1696
843,00;364,9804
844,00;403,5836
845,00;721,6738
846,00;-18,3679
847,00;-67,9748
848,00;19,3510
849,00;-152,5181
850,00;-156,0042
851,00;-90,2257
852,00;89,7205
853,00;-173,3227
854,00;-29,9364
855,00;-53,1443
856,00;80,3696
857,00;10,2298
858,00;-104,6168
859,00;28,5305
860,00;54,8836
861,00;-59,9198
862,00;-96,9826
863,00;-15,6538
864,00;-121,8884
865,00;-67,3552
866,00;-14,4635
867,00;-73,6799
868,00;-26,8756
869,00;46,2012
870,00;15,4523
871,00;-98,6740
872,00;-101,3935
873,00;-33,8138
874,00;-30,6154
875,00;54,2641
876,00;-84,2449
877,00;236,1340
878,00;-74,7589
879,00;-44,3144
880,00;71,6610
881,00;-31,2428
882,00;-27,1014
883,00;-16,3206
884,00;150,5792
885,00;-105,3479
886,00;-95,8118
887,00;-46,6023
888,00;-33,8174
889,00;-58,8873
890,00;-37,2620
891,00;70,9319
892,00;-95,0330
893,00;84,0008
894,00;-160,4087
895,00;-68,3175
896,00;-141,5736
897,00;-59,8284
898,00;-11,5382
899,00;-55,3707
900,00;-179,4856
901,00;90,8465
902,00;49,8412
903,00;-29,5238
904,00;-38,0927
905,00;9,2663
906,00;-216,7460
907,00;-141,3181
908,00;-138,2296
909,00;-119,5092
910,00;-197,2022
911,00;-42,9369
912,00;466,5962
913,00;255,1940
914,00;32,0876
915,00;-15,5876
916,00;-50,4287
917,00;-39,5497
918,00;-88,1051
919,00;3,9125
920,00;-92,6760
921,00;-80,9204
922,00;-3,5725
923,00;-6,0875
924,00;-56,2972
925,00;33,7721
926,00;159,9898
927,00;171,2511
928,00;-44,6239
929,00;-50,2405
930,00;-135,5946
931,00;-102,6670
932,00;-85,7296
933,00;-101,7394
934,00;-17,0050
935,00;-14,9350
936,00;139,3151
937,00;67,2403
938,00;72,9465
939,00;-16,0806
940,00;-70,7068
941,00;-137,6006
942,00;-151,2449
943,00;-134,0772
944,00;-160,0135
945,00;9,3647
946,00;-87,5062
947,00;85,9948
948,00;-8,8206
949,00;-101,6034
950,00;-102,4900
951,00;110,0955
952,00;-154,5124
953,00;-108,4286
954,00;-133,2122
955,00;-22,2679
956,00;-158,4457
957,00;-91,6534
958,00;-128,9343
959,00;26,3165
960,00;-118,9541
961,00;-95,2489
962,00;-48,5049
963,00;159,8754
964,00;-37,6696
965,00;-71,4568
966,00;110,1281
967,00;196,2736
968,00;-11,6974
969,00;-92,4759
970,00;-136,8052
971,00;-55,5597
972,00;11,1763
973,00;-11,0635
974,00;-167,1072
975,00;134,3523
976,00;14,6422
977,00;-174,5408
978,00;-101,3052
979,00;0,7180
980,00;-154,5845
981,00;-57,7065
982,00;-144,6788
983,00;-78,7687
984,00;-193,0529
985,00;-36,0600
986,00;24,9572
987,00;113,0697
988,00;64,8379
989,00;-48,8477
990,00;96,3734
991,00;-114,6639
992,00;-36,6017
993,00;-15,0946
994,00;-197,7762
995,00;-27,3344
996,00;-128,7392
997,00;-45,2710
998,00;-51,3479
999,00;-152,1312
1000,00;139,8212
1001,00;84,0660
1002,00;-59,5393
1003,00;-10,7242
1004,00;-32,5311
1005,00;-79,1776
1006,00;-110,6693
1007,00;-52,8155
1008,00;46,7213
1009,00;-51,4238
1010,00;-19,7326
1011,00;63,6687
1012,00;12,7582
1013,00;-130,2963
1014,00;161,9303
1015,00;167,7599
1016,00;-109,2040
1017,00;-117,2492
1018,00;-36,4268
1019,00;-160,0385
1020,00;-88,4493
1021,00;-53,3733
1022,00;-195,5876
1023,00;-17,7549
1024,00;-65,1704
1025,00;42,7707
1026,00;102,5955
1027,00;-22,8483
1028,00;-10,0513
1029,00;11,9333
1030,00;-54,8037
1031,00;-102,8509
1032,00;-34,5353
1033,00;20,9311
1034,00;-155,0088
1035,00;-174,6507
1036,00;84,6504
1037,00;-106,4912
1038,00;-117,1039
1039,00;8,1869
1040,00;-104,4351
1041,00;16,8981
1042,00;-25,1152
1043,00;97,5323
1044,00;331,2906
1045,00;-40,2234
1046,00;-102,1089
1047,00;52,2065
1048,00;-4,9804
1049,00;-80,9009
1050,00;-82,0297
1051,00;-89,2698
1052,00;-37,3456
1053,00;-194,8008
1054,00;-31,0798
1055,00;-136,7111
1056,00;-119,3232
1057,00;-102,0350
1058,00;90,8210
1059,00;17,3966
1060,00;-32,7990
1061,00;-108,4571
1062,00;-51,4408
1063,00;-119,0754
1064,00;-5,3888
1065,00;-59,2204
1066,00;-22,8274
1067,00;-26,3595
1068,00;-153,5716
1069,00;-90,6673
1070,00;-77,6213
1071,00;-102,5578
1072,00;35,7937
1073,00;11,6540
1074,00;-42,1403
1075,00;-7,2979
1076,00;-71,8970
1077,00;-87,6309
1078,00;-64,4765
1079,00;-16,9086
1080,00;-140,9967
1081,00;-53,0320
1082,00;-77,7249
1083,00;-180,0230
1084,00;-14,9517
1085,00;-41,9422
1086,00;22,4841
1087,00;-74,9922
1088,00;-7,0353
1089,00;113,4109
1090,00;-115,6813
1091,00;105,8062
1092,00;-60,1381
1093,00;89,4386
1094,00;37,0722
1095,00;33,9036
1096,00;-124,0734
1097,00;-66,5608
1098,00;-93,3347
1099,00;-94,0960
1100,00;-83,8676
