M- 12.7Pa 40W 25-50
Integration time: 1000 ms
Average: 20 scans
Nr of pixels used for smoothing: 0
Data measured with spectrometer serial number: 0501039S2
Wave   ;Sample
[nm]   ;[counts]
200,00;-175,2327
201,00;5,5184
202,00;-86,5074
203,00;-198,5189
204,00;-19,9253
205,00;-126,6981
206,00;-181,9121
207,00;-74,2723
208,00;-16,7971
209,00;118,1486
210,00;-165,7648
211,00;-24,3525
212,00;-122,7866
213,00;-34,1763
214,00;-67,0110
215,00;-57,8659
216,00;-87,2485
217,00;-113,1381
218,00;-135,1357
219,00;-106,7836
220,00;400,7851
221,00;28,2337
222,00;55,4632
223,00;-178,7944
224,00;-172,1523
225,00;87,8082
226,00;-37,9959
227,00;-61,7232
228,00;137,8626
229,00;-125,3940
230,00;20,4976
231,00;-78,0349
232,00;52,5751
233,00;56,7568
234,00;-85,1489
235,00;-28,5206
236,00;-97,9200
237,00;-53,2248
238,00;21,6447
239,00;1,7576
240,00;-180,6913
241,00;-172,1045
242,00;-71,5563
243,00;-159,8275
244,00;162,8073
245,00;53,4292
246,00;-135,3358
247,00;-180,2676
248,00;16,2188
249,00;40,5707
250,00;-27,4973
251,00;148,1611
252,00;-137,9668
253,00;29,6857
254,00;-268,7530
255,00;-166,9805
256,00;-126,3860
257,00;59,1774
258,00;-56,5430
259,00;9,0418
260,00;-124,7819
261,00;-0,0579
262,00;64,5247
263,00;-152,2745
264,00;77,9804
265,00;52,3775
266,00;-9,6056
267,00;204,8221
268,00;-70,2758
269,00;140,6181
270,00;-91,2010
271,00;9,1503
272,00;-51,0023
273,00;-38,4430
274,00;-5,6234
275,00;82,4520
276,00;-22,1342
277,00;-114,5284
278,00;-81,9352
279,00;-87,6613
280,00;-82,7311
281,00;6,0910
282,00;-0,9715
283,00;6,6699
284,00;-113,9795
285,00;-202,4610
286,00;-44,2781
287,00;-66,6128
288,00;-91,6881
289,00;-88,7188
290,00;-73,5799
291,00;-119,6133
292,00;-125,1396
293,00;-9,2924
294,00;-13,4328
295,00;14,0840
296,00;-122,4083
297,00;-126,4177
298,00;-129,5857
299,00;-115,1273
300,00;-71,2341
301,00;51,5449
302,00;-110,3607
303,00;-90,0213
304,00;-82,9770
305,00;-108,2668
306,00;-50,3595
307,00;64,3555
308,00;33,2154
309,00;-72,8375
310,00;-144,4664
311,00;-16,2207
312,00;-43,0721
313,00;-5,1257
314,00;-41,7863
315,00;-111,9684
316,00;39,4367
317,00;-175,8978
318,00;-102,0693
319,00;26,3786
320,00;-112,6513
321,00;-22,8638
322,00;-109,9041
323,00;-181,6409
324,00;-24,0098
325,00;95,9402
326,00;-40,2495
327,00;-141,8167
328,00;-80,9177
329,00;-4,3926
330,00;-74,8281
331,00;-104,2493
332,00;12,5359
333,00;-53,2229
334,00;-30,5918
335,00;-151,7865
336,00;-91,5117
337,00;86,7105
338,00;-14,4458
339,00;-26,2899
340,00;-33,0536
341,00;-109,1806
342,00;-75,2210
343,00;20,2537
344,00;-22,4822
345,00;-102,4198
346,00;207,2976
347,00;-104,4078
348,00;-93,9683
349,00;-165,5065
350,00;-69,2819
351,00;11,9677
352,00;-8,3250
353,00;-99,6499
354,00;88,4532
355,00;-190,4301
356,00;-18,4705
357,00;-53,4318
358,00;105,0885
359,00;31,2795
360,00;-70,2929
361,00;-158,0784
362,00;-168,4226
363,00;-145,1192
364,00;-139,3108
365,00;-8,0564
366,00;-20,5909
367,00;161,0717
368,00;-119,4393
369,00;17,3960
370,00;-3,2916
371,00;-19,9055
372,00;-160,8721
373,00;-79,7455
374,00;-122,9793
375,00;48,5851
376,00;-53,6968
377,00;51,9894
378,00;-121,5555
379,00;66,1603
380,00;137,5889
381,00;-101,3656
382,00;11,7971
383,00;-76,0109
384,00;27,7897
385,00;-36,5069
386,00;103,3722
387,00;-82,9519
388,00;-67,1444
389,00;-61,2664
390,00;66,5889
391,00;203,2896
392,00;96,1615
393,00;-119,4123
394,00;-28,0006
395,00;195,5623
396,00;97,1232
397,00;-87,7786
398,00;-29,0425
399,00;40,6414
400,00;-64,0447
401,00;-55,8771
402,00;-149,4671
403,00;-102,0807
404,00;123,8321
405,00;236,4776
406,00;166,5714
407,00;-18,2869
408,00;-30,7883
409,00;89,0867
410,00;-68,4555
411,00;58,7471
412,00;112,5725
413,00;31,5021
414,00;-45,1584
415,00;49,3792
416,00;423,6771
417,00;18,2830
418,00;231,8749
419,00;592,6526
420,00;949,4698
421,00;-136,5378
422,00;2,3384
423,00;55,7917
424,00;102,5163
425,00;321,2404
426,00;973,1066
427,00;464,4330
428,00;169,7080
429,00;75,5924
430,00;270,3439
431,00;207,6971
432,00;-17,1499
433,00;288,1502
434,00;154,1390
435,00;-11,1269
436,00;99,2866
437,00;324,3362
438,00;121,3417
439,00;162,4066
440,00;10,5962
441,00;-17,8092
442,00;-8,2589
443,00;165,7905
444,00;55,9908
445,00;175,1066
446,00;-10,2848
447,00;-56,9460
448,00;-118,8874
449,00;-23,4965
450,00;55,2236
451,00;443,9980
452,00;-7,4731
453,00;2,3760
454,00;-20,0619
455,00;-64,5799
456,00;-60,2732
457,00;58,3204
458,00;25,1928
459,00;-2,9500
460,00;-67,7845
461,00;16,3174
462,00;-90,2653
463,00;89,2760
464,00;36,3463
465,00;312,5531
466,00;116,1481
467,00;47,8209
468,00;-84,4891
469,00;33,9988
470,00;-45,9122
471,00;7,5628
472,00;-11,2950
473,00;87,7215
474,00;-84,2191
475,00;108,6359
476,00;75,5306
477,00;28,1609
478,00;42,2226
479,00;66,4584
480,00;109,3965
481,00;86,1589
482,00;-57,2379
483,00;-5,4297
484,00;26,3231
485,00;-83,2138
486,00;-13,9144
487,00;29,8335
488,00;101,7508
489,00;93,0177
490,00;-127,1251
491,00;203,4004
492,00;63,8340
493,00;-71,1075
494,00;140,1397
495,00;112,7865
496,00;68,5721
497,00;129,5182
498,00;246,8222
499,00;110,9169
500,00;-16,9508
501,00;75,8962
502,00;-12,0598
503,00;-30,3446
504,00;19,7274
505,00;126,7183
506,00;3,6654
507,00;-5,7858
508,00;-17,2976
509,00;93,3533
510,00;13,6413
511,00;-119,1475
512,00;68,3450
513,00;-22,3669
514,00;52,8009
515,00;9,1333
516,00;369,6004
517,00;-2,8385
518,00;49,7675
519,00;160,1037
520,00;-77,3251
521,00;161,8511
522,00;342,1009
523,00;471,0130
524,00;452,2500
525,00;827,5723
526,00;787,6475
527,00;562,9384
528,00;535,1802
529,00;349,7385
530,00;304,5012
531,00;78,0052
532,00;-35,1586
533,00;168,0083
534,00;-44,1627
535,00;-0,2428
536,00;47,1965
537,00;51,5825
538,00;72,8946
539,00;-69,0383
540,00;-160,4043
541,00;-87,4350
542,00;137,3014
543,00;117,2723
544,00;329,1058
545,00;225,6227
546,00;40,6053
547,00;-66,3647
548,00;123,0276
549,00;122,7788
550,00;322,6814
551,00;71,0795
552,00;120,2256
553,00;390,9133
554,00;155,9857
555,00;503,6906
556,00;780,7236
557,00;955,1857
558,00;1638,8690
559,00;1767,4170
560,00;1775,7780
561,00;1483,8280
562,00;1247,9910
563,00;645,2432
564,00;195,6738
565,00;166,4936
566,00;47,9961
567,00;141,7537
568,00;249,0200
569,00;15,7692
570,00;82,1304
571,00;181,2483
572,00;112,9067
573,00;49,9076
574,00;272,6150
575,00;121,6121
576,00;-52,3373
577,00;26,9635
578,00;-28,6888
579,00;45,9468
580,00;194,1163
581,00;247,1370
582,00;171,5962
583,00;149,3707
584,00;185,0566
585,00;158,8284
586,00;507,3261
587,00;338,0363
588,00;377,7569
589,00;408,6571
590,00;287,0467
591,00;509,9734
592,00;237,5256
593,00;316,6826
594,00;174,7227
595,00;304,0488
596,00;512,8405
597,00;972,2391
598,00;771,6588
599,00;778,0838
600,00;551,4869
601,00;502,1991
602,00;504,3510
603,00;856,1694
604,00;402,9663
605,00;421,7215
606,00;105,7933
607,00;-47,3668
608,00;43,7481
609,00;-56,7725
610,00;10,3668
611,00;116,4975
612,00;16,9283
613,00;-24,0540
614,00;-17,7504
615,00;35,2612
616,00;232,6010
617,00;150,0047
618,00;262,2350
619,00;39,6074
620,00;-26,9985
621,00;163,2148
622,00;63,8974
623,00;42,3471
624,00;-193,1674
625,00;-112,3464
626,00;42,9191
627,00;173,5912
628,00;11,7526
629,00;20,1013
630,00;51,6971
631,00;77,5029
632,00;121,6741
633,00;93,5800
634,00;236,2271
635,00;477,0222
636,00;640,5545
637,00;312,4053
638,00;389,7059
639,00;296,9670
640,00;241,2923
641,00;388,7523
642,00;308,7888
643,00;135,3965
644,00;-38,8115
645,00;206,7091
646,00;111,3769
647,00;78,6713
648,00;-165,5425
649,00;135,2364
650,00;-43,4749
651,00;-50,5762
652,00;1,0825
653,00;131,3929
654,00;59,2904
655,00;-125,1238
656,00;-91,8403
657,00;85,7149
658,00;105,4194
659,00;209,0197
660,00;177,4029
661,00;10,4985
662,00;11,7029
663,00;-3,8655
664,00;13,7682
665,00;-36,5447
666,00;101,1525
667,00;89,4590
668,00;276,1875
669,00;47,4668
670,00;387,6991
671,00;-12,3950
672,00;-30,1289
673,00;7,4929
674,00;72,5040
675,00;441,7328
676,00;175,5507
677,00;289,5419
678,00;147,4446
679,00;199,8812
680,00;181,2644
681,00;170,5995
682,00;44,2736
683,00;219,0359
684,00;239,6374
685,00;145,9875
686,00;13,9268
687,00;176,0419
688,00;-55,3020
689,00;-92,7448
690,00;-3,7687
691,00;-72,9799
692,00;134,8225
693,00;60,4407
694,00;104,5706
695,00;-11,0421
696,00;442,1851
697,00;358,7865
698,00;118,3227
699,00;42,3373
700,00;94,7565
701,00;42,7344
702,00;-54,2683
703,00;231,3551
704,00;-1,4534
705,00;72,0483
706,00;176,3769
707,00;608,0497
708,00;-11,8429
709,00;152,3603
710,00;311,2161
711,00;-80,9065
712,00;41,4190
713,00;-119,7343
714,00;53,8390
715,00;137,8080
716,00;19,8230
717,00;-33,2557
718,00;2,5726
719,00;198,6267
720,00;74,0134
721,00;135,0205
722,00;-146,2799
723,00;-12,2589
724,00;-17,0572
725,00;20,5792
726,00;65,7268
727,00;257,2726
728,00;164,4670
729,00;-5,9459
730,00;-110,2031
731,00;76,4474
732,00;-97,6388
733,00;-64,1873
734,00;146,3167
735,00;74,8313
736,00;229,8256
737,00;362,1837
738,00;875,1114
739,00;496,3277
740,00;39,6171
741,00;286,9411
742,00;217,5416
743,00;122,8420
744,00;537,0335
745,00;123,1450
746,00;82,5097
747,00;66,4339
748,00;-29,6201
749,00;7,5279
750,00;3279,2970
751,00;2908,7730
752,00;867,5546
753,00;91,2811
754,00;29,2349
755,00;26,2304
756,00;15,0927
757,00;0,7315
758,00;-212,2300
759,00;-53,3882
760,00;268,7479
761,00;322,2651
762,00;21,6272
763,00;1593,8220
764,00;1138,8530
765,00;-37,8838
766,00;51,2811
767,00;-90,3884
768,00;-109,3796
769,00;-36,3870
770,00;-61,5462
771,00;-64,8071
772,00;478,4437
773,00;298,6068
774,00;-0,8755
775,00;-87,2116
776,00;175,2683
777,00;4930,9900
778,00;2191,0130
779,00;86,1458
780,00;38,5312
781,00;-73,9865
782,00;-74,7780
783,00;61,7250
784,00;114,9816
785,00;-140,6608
786,00;-99,7352
787,00;7,9684
788,00;-1,5157
789,00;-34,7334
790,00;-43,2203
791,00;-118,2608
792,00;-85,2918
793,00;-81,8642
794,00;249,9328
795,00;414,5582
796,00;41,1401
797,00;35,2397
798,00;-36,7538
799,00;-91,0840
800,00;280,2143
801,00;459,5503
802,00;233,1390
803,00;-71,6314
804,00;-174,2500
805,00;13,5197
806,00;-171,8055
807,00;90,2182
808,00;-72,7344
809,00;-43,5385
810,00;631,3398
811,00;1430,3890
812,00;1178,2630
813,00;-62,3100
814,00;-0,7420
815,00;-82,1001
816,00;-98,9144
817,00;31,6551
818,00;-75,4767
819,00;-22,1603
820,00;-67,0415
821,00;30,1877
822,00;-36,4137
823,00;-174,3205
824,00;-92,7982
825,00;-110,2628
826,00;200,8405
827,00;27,6147
828,00;-75,3097
829,00;-59,6552
830,00;-154,5827
831,00;37,3023
832,00;-216,6354
833,00;-57,5557
834,00;-132,7178
835,00;-126,3354
836,00;-0,9385
837,00;63,3787
838,00;-8,3390
839,00;75,5809
840,00;183,2441
841,00;415,7676
842,00;561,1258
843,00;442,2688
844,00;463,0616
845,00;888,5010
846,00;4,0734
847,00;-63,0233
848,00;18,6791
849,00;-158,1948
850,00;-158,9537
851,00;-93,0689
852,00;113,2188
853,00;-176,5278
854,00;-38,0776
855,00;-49,8298
856,00;91,1331
857,00;10,2327
858,00;-104,2254
859,00;29,7642
860,00;57,4517
861,00;-63,8245
862,00;-97,7638
863,00;-15,7718
864,00;-114,0828
865,00;-61,8529
866,00;-14,8419
867,00;-73,2981
868,00;-21,0102
869,00;55,5993
870,00;20,9217
871,00;-101,7587
872,00;-100,6649
873,00;-31,0433
874,00;-28,1511
875,00;55,7444
876,00;-90,7228
877,00;249,1644
878,00;-65,7208
879,00;-40,8270
880,00;75,5062
881,00;-26,0395
882,00;-32,4535
883,00;-14,0262
884,00;150,9707
885,00;-105,7393
886,00;-106,0842
887,00;-51,5943
888,00;-38,7073
889,00;-64,5942
890,00;-38,4928
891,00;82,9151
892,00;-93,7962
893,00;85,3436
894,00;-167,3827
895,00;-72,4403
896,00;-139,5722
897,00;-62,1581
898,00;-13,0063
899,00;-55,2997
900,00;-185,1082
901,00;107,7768
902,00;42,7623
903,00;-22,4590
904,00;-31,4580
905,00;9,4920
906,00;-220,5023
907,00;-151,2848
908,00;-147,4951
909,00;-119,9122
910,00;-208,5575
911,00;-45,7612
912,00;513,0959
913,00;297,6206
914,00;43,6866
915,00;-3,5303
916,00;-49,9133
917,00;-43,6516
918,00;-88,8464
919,00;4,5753
920,00;-93,3405
921,00;-79,0162
922,00;7,0384
923,00;5,2009
924,00;-54,1427
925,00;39,2668
926,00;187,3685
927,00;187,2402
928,00;-41,0177
929,00;-48,3615
930,00;-141,6800
931,00;-104,2610
932,00;-86,4102
933,00;-108,0795
934,00;-16,0260
935,00;-14,5499
936,00;149,0484
937,00;75,6091
938,00;81,9846
939,00;-9,7029
940,00;-68,2423
941,00;-142,3437
942,00;-161,4110
943,00;-138,6912
944,00;-169,4869
945,00;15,5431
946,00;-92,2636
947,00;95,6056
948,00;-8,8832
949,00;-99,0355
950,00;-104,2593
951,00;154,9979
952,00;-161,0764
953,00;-112,2045
954,00;-133,9814
955,00;-23,0936
956,00;-170,5004
957,00;-89,8033
958,00;-132,1761
959,00;35,2244
960,00;-117,5349
961,00;-104,9036
962,00;-43,6910
963,00;166,6079
964,00;-32,3467
965,00;-72,4228
966,00;124,1314
967,00;197,2190
968,00;0,2299
969,00;-94,5432
970,00;-142,7567
971,00;-60,5366
972,00;13,9787
973,00;-9,0021
974,00;-176,8723
975,00;147,5214
976,00;14,1739
977,00;-174,1333
978,00;-102,7780
979,00;-1,8769
980,00;-161,3229
981,00;-59,9657
982,00;-149,2944
983,00;-79,5121
984,00;-202,3304
985,00;-43,0168
986,00;29,6663
987,00;121,1222
988,00;79,7745
989,00;-49,0927
990,00;66,3785
991,00;-126,1077
992,00;-37,1866
993,00;-23,0230
994,00;-202,5397
995,00;-26,3244
996,00;-136,4916
997,00;-47,7650
998,00;-53,5648
999,00;-152,5800
1000,00;141,7754
1001,00;87,1440
1002,00;-62,4117
1003,00;-4,8677
1004,00;-33,3400
1005,00;-82,2071
1006,00;-109,6281
1007,00;-62,6794
1008,00;45,9569
1009,00;-53,5437
1010,00;-18,0145
1011,00;70,0250
1012,00;16,2531
1013,00;-129,7717
1014,00;180,6543
1015,00;170,3920
1016,00;-112,2934
1017,00;-125,8590
1018,00;-43,6625
1019,00;-168,0659
1020,00;-90,4926
1021,00;-50,6969
1022,00;-204,8401
1023,00;-18,0511
1024,00;-71,0297
1025,00;48,4961
1026,00;107,3848
1027,00;-27,4929
1028,00;-2,3347
1029,00;13,1211
1030,00;-57,0625
1031,00;-103,0280
1032,00;-33,6918
1033,00;25,3101
1034,00;-155,3787
1035,00;-187,7368
1036,00;91,2657
1037,00;-112,8594
1038,00;-120,0632
1039,00;17,0653
1040,00;-106,4010
1041,00;19,8316
1042,00;-17,6557
1043,00;105,8663
1044,00;349,7419
1045,00;-36,3017
1046,00;-100,7565
1047,00;56,5692
1048,00;-10,5921
1049,00;-84,4171
1050,00;-85,2396
1051,00;-93,1186
1052,00;-31,0802
1053,00;-206,2041
1054,00;-32,3826
1055,00;-141,5500
1056,00;-125,8447
1057,00;-105,8355
1058,00;92,7055
1059,00;22,7881
1060,00;-29,2402
1061,00;-106,1463
1062,00;-51,6850
1063,00;-125,0346
1064,00;-5,6331
1065,00;-55,4381
1066,00;-20,3610
1067,00;-23,9841
1068,00;-160,6917
1069,00;-102,2430
1070,00;-74,6502
1071,00;-106,6901
1072,00;36,4669
1073,00;24,2124
1074,00;-45,8840
1075,00;-15,6673
1076,00;-81,1106
1077,00;-82,3647
1078,00;-57,5635
1079,00;-20,6758
1080,00;-147,1307
1081,00;-53,0753
1082,00;-76,0905
1083,00;-183,3270
1084,00;-18,3891
1085,00;-45,5089
1086,00;22,8438
1087,00;-74,4518
1088,00;-15,5199
1089,00;117,8569
1090,00;-121,9960
1091,00;115,1157
1092,00;-62,2587
1093,00;93,6213
1094,00;35,8384
1095,00;32,7169
1096,00;-133,2410
1097,00;-78,1359
1098,00;-98,2296
1099,00;-95,9042
1100,00;-93,8117
