M- 9.2Pa 15W 25-50
Integration time: 1000 ms
Average: 20 scans
Nr of pixels used for smoothing: 0
Data measured with spectrometer serial number: 0501039S2
Wave   ;Sample
[nm]   ;[counts]
200,00;-165,6133
201,00;-3,3513
202,00;-91,9025
203,00;-182,9603
204,00;-19,8882
205,00;-115,9797
206,00;-173,4481
207,00;-74,0001
208,00;-27,1811
209,00;103,0097
210,00;-160,0754
211,00;-29,6862
212,00;-119,9189
213,00;-37,4167
214,00;-72,8548
215,00;-58,4303
216,00;-75,5824
217,00;-104,7124
218,00;-128,6221
219,00;-106,8334
220,00;370,9638
221,00;20,9385
222,00;46,7375
223,00;-162,9276
224,00;-163,2524
225,00;79,2896
226,00;-33,6017
227,00;-65,5585
228,00;117,2018
229,00;-119,3092
230,00;5,5202
231,00;-76,6570
232,00;45,5805
233,00;54,1207
234,00;-91,4961
235,00;-24,4507
236,00;-97,0702
237,00;-52,8377
238,00;9,9999
239,00;-1,3890
240,00;-175,4785
241,00;-159,9444
242,00;-69,7730
243,00;-150,4322
244,00;138,0860
245,00;37,8410
246,00;-120,9960
247,00;-171,0844
248,00;-1,7127
249,00;33,9921
250,00;-29,5598
251,00;143,7092
252,00;-133,9175
253,00;29,2722
254,00;-248,9555
255,00;-155,4318
256,00;-120,6638
257,00;57,8318
258,00;-60,5204
259,00;6,6724
260,00;-122,3005
261,00;-0,0474
262,00;54,2248
263,00;-147,5813
264,00;60,8889
265,00;48,9160
266,00;-15,1499
267,00;195,7669
268,00;-76,7073
269,00;125,9858
270,00;-94,4764
271,00;6,8023
272,00;-47,3948
273,00;-39,3905
274,00;-10,9955
275,00;70,7900
276,00;-32,4798
277,00;-113,3086
278,00;-76,4165
279,00;-89,2054
280,00;-76,9920
281,00;-7,3250
282,00;-2,8963
283,00;-1,8380
284,00;-102,9337
285,00;-195,8633
286,00;-35,8892
287,00;-73,1861
288,00;-83,9984
289,00;-87,9672
290,00;-69,5337
291,00;-115,4231
292,00;-123,5723
293,00;-13,5556
294,00;-11,2793
295,00;6,7550
296,00;-123,0074
297,00;-121,8497
298,00;-127,6682
299,00;-112,7576
300,00;-70,8840
301,00;34,5919
302,00;-106,4936
303,00;-87,8957
304,00;-82,9515
305,00;-103,8616
306,00;-52,4939
307,00;51,5159
308,00;0,1138
309,00;-78,2537
310,00;-134,9404
311,00;-16,4851
312,00;-50,3065
313,00;-16,9262
314,00;-46,3471
315,00;-109,0561
316,00;36,2919
317,00;-171,7005
318,00;-102,6774
319,00;20,8775
320,00;-108,7075
321,00;-27,1055
322,00;-102,9645
323,00;-166,6224
324,00;-27,9882
325,00;82,1762
326,00;-44,3043
327,00;-140,9354
328,00;-74,6035
329,00;-6,0936
330,00;-75,6748
331,00;-101,6276
332,00;2,5584
333,00;-52,1368
334,00;-31,2701
335,00;-153,6965
336,00;-86,9669
337,00;81,9742
338,00;-22,6384
339,00;-32,5125
340,00;-42,2029
341,00;-107,2406
342,00;-70,5093
343,00;11,9870
344,00;-23,5782
345,00;-103,9851
346,00;188,0784
347,00;-98,6264
348,00;-84,9818
349,00;-152,6302
350,00;-77,3725
351,00;7,5614
352,00;-13,4389
353,00;-98,2914
354,00;76,3179
355,00;-177,9289
356,00;-19,0961
357,00;-56,1399
358,00;95,5575
359,00;24,0647
360,00;-73,0095
361,00;-155,6952
362,00;-155,8666
363,00;-135,1956
364,00;-141,5731
365,00;-24,7912
366,00;-26,0719
367,00;137,1789
368,00;-112,5362
369,00;13,0953
370,00;-9,4567
371,00;-26,6567
372,00;-158,7699
373,00;-88,3174
374,00;-122,7095
375,00;38,7274
376,00;-53,9495
377,00;37,0011
378,00;-126,0646
379,00;54,8686
380,00;97,7698
381,00;-103,5041
382,00;4,4128
383,00;-88,7148
384,00;-5,3432
385,00;-53,6031
386,00;76,9837
387,00;-96,8018
388,00;-90,0272
389,00;-88,2081
390,00;33,5369
391,00;139,5514
392,00;67,0760
393,00;-137,3762
394,00;-84,9977
395,00;55,6716
396,00;62,1292
397,00;-123,8602
398,00;-62,0664
399,00;-2,6677
400,00;-83,8958
401,00;-76,0359
402,00;-149,4134
403,00;-116,2791
404,00;66,5070
405,00;177,3716
406,00;118,8692
407,00;-73,1229
408,00;-72,3817
409,00;41,0806
410,00;-95,4924
411,00;26,0716
412,00;65,4367
413,00;-8,8260
414,00;-70,1246
415,00;15,8142
416,00;313,4142
417,00;-20,7069
418,00;164,7549
419,00;435,3605
420,00;684,7950
421,00;-155,8905
422,00;-32,9435
423,00;13,5570
424,00;63,1386
425,00;246,2000
426,00;733,4638
427,00;320,6756
428,00;90,3943
429,00;46,3275
430,00;208,1875
431,00;156,3838
432,00;-57,1378
433,00;189,5502
434,00;53,2500
435,00;-104,7466
436,00;26,7494
437,00;188,2237
438,00;64,3406
439,00;129,5128
440,00;-22,0920
441,00;-60,4268
442,00;-54,0207
443,00;115,6835
444,00;42,9863
445,00;138,8902
446,00;-28,7333
447,00;-74,5089
448,00;-136,1947
449,00;-38,8209
450,00;41,5651
451,00;357,0902
452,00;-31,8762
453,00;-10,3290
454,00;-47,5860
455,00;-80,3314
456,00;-67,6153
457,00;35,8772
458,00;-5,6973
459,00;-60,6965
460,00;-103,8328
461,00;-34,9355
462,00;-102,7524
463,00;60,7333
464,00;-28,2936
465,00;201,9557
466,00;56,0199
467,00;19,9241
468,00;-101,4278
469,00;10,2726
470,00;-78,3524
471,00;-13,9955
472,00;-36,3003
473,00;42,8666
474,00;-101,3997
475,00;82,3421
476,00;15,5710
477,00;-23,6301
478,00;11,8104
479,00;35,3805
480,00;64,9650
481,00;55,3563
482,00;-70,7797
483,00;-16,8662
484,00;-0,0009
485,00;-96,1105
486,00;-31,1376
487,00;12,6871
488,00;35,9281
489,00;49,3023
490,00;-128,8856
491,00;186,3216
492,00;40,0622
493,00;-92,3718
494,00;114,6483
495,00;92,6176
496,00;22,3808
497,00;53,8967
498,00;186,3539
499,00;84,7567
500,00;-37,7752
501,00;43,6466
502,00;-36,6657
503,00;-45,1276
504,00;2,6295
505,00;105,8183
506,00;-16,6675
507,00;-17,2364
508,00;-32,2412
509,00;64,5968
510,00;-5,5861
511,00;-131,3612
512,00;34,3020
513,00;-37,1294
514,00;32,4396
515,00;-12,8113
516,00;302,5405
517,00;-23,0749
518,00;13,8794
519,00;89,7910
520,00;-101,2483
521,00;88,3702
522,00;208,7055
523,00;292,8523
524,00;253,3903
525,00;529,5268
526,00;488,7761
527,00;339,9849
528,00;351,9377
529,00;211,2470
530,00;238,3989
531,00;42,0942
532,00;-62,2194
533,00;80,4964
534,00;-70,6838
535,00;-28,5063
536,00;19,1754
537,00;15,2645
538,00;38,8672
539,00;-85,9764
540,00;-172,5700
541,00;-109,1747
542,00;101,8596
543,00;88,3608
544,00;259,7470
545,00;170,3632
546,00;-1,3261
547,00;-80,0489
548,00;92,0208
549,00;65,6550
550,00;228,7036
551,00;24,3197
552,00;70,7208
553,00;301,9903
554,00;56,5594
555,00;305,8624
556,00;510,7620
557,00;628,6080
558,00;1084,6340
559,00;1135,3800
560,00;1210,9120
561,00;1001,6640
562,00;829,8233
563,00;383,2672
564,00;100,8781
565,00;89,6686
566,00;3,5432
567,00;106,3894
568,00;200,8511
569,00;-25,9135
570,00;51,0473
571,00;138,4899
572,00;76,1571
573,00;17,1953
574,00;206,0103
575,00;81,9664
576,00;-67,8659
577,00;0,6716
578,00;-54,7374
579,00;16,7996
580,00;124,5683
581,00;183,8944
582,00;90,7756
583,00;56,2198
584,00;92,4932
585,00;78,8976
586,00;380,1810
587,00;210,6318
588,00;236,7543
589,00;266,9342
590,00;177,6860
591,00;355,3599
592,00;112,3096
593,00;196,5421
594,00;83,6344
595,00;182,3260
596,00;336,2729
597,00;676,2997
598,00;482,5043
599,00;520,0596
600,00;337,3003
601,00;310,8108
602,00;326,5106
603,00;639,4305
604,00;298,0668
605,00;340,6770
606,00;61,2573
607,00;-65,7311
608,00;19,8362
609,00;-76,3720
610,00;-28,8321
611,00;70,0134
612,00;-1,7162
613,00;-40,7297
614,00;-33,5550
615,00;-2,4833
616,00;99,4177
617,00;30,9227
618,00;181,8558
619,00;5,4209
620,00;-53,4400
621,00;118,0443
622,00;28,3819
623,00;9,1324
624,00;-196,6809
625,00;-114,5571
626,00;12,6875
627,00;129,3966
628,00;-25,0542
629,00;-22,4349
630,00;-6,4053
631,00;28,7432
632,00;72,3059
633,00;30,8613
634,00;139,5449
635,00;324,1667
636,00;430,4952
637,00;165,3962
638,00;223,3354
639,00;152,6841
640,00;111,7709
641,00;266,7808
642,00;196,7354
643,00;90,5040
644,00;-68,5891
645,00;132,7327
646,00;40,1371
647,00;32,9274
648,00;-174,2461
649,00;107,1067
650,00;-68,0774
651,00;-75,4314
652,00;-29,5787
653,00;88,7519
654,00;26,0386
655,00;-132,2706
656,00;-100,6785
657,00;60,4562
658,00;72,9256
659,00;159,3808
660,00;121,6032
661,00;-33,1651
662,00;-27,3093
663,00;-36,0749
664,00;-9,3091
665,00;-53,9308
666,00;62,2513
667,00;32,9836
668,00;203,4402
669,00;-9,8816
670,00;292,8474
671,00;-53,2633
672,00;-66,7597
673,00;-29,2025
674,00;20,1075
675,00;300,6952
676,00;72,9140
677,00;200,3547
678,00;63,4487
679,00;110,6429
680,00;110,9776
681,00;105,1011
682,00;-9,3392
683,00;140,1978
684,00;182,4296
685,00;100,3428
686,00;-20,2954
687,00;89,4600
688,00;-82,2673
689,00;-105,0645
690,00;-15,4188
691,00;-90,0862
692,00;107,2867
693,00;33,0731
694,00;64,3831
695,00;-22,5714
696,00;307,6536
697,00;187,5863
698,00;90,3524
699,00;21,0909
700,00;53,1087
701,00;24,9127
702,00;-67,1380
703,00;163,9415
704,00;-19,2379
705,00;45,7218
706,00;95,5595
707,00;367,6287
708,00;-38,7352
709,00;91,7444
710,00;269,8937
711,00;-101,2369
712,00;19,5055
713,00;-141,4665
714,00;31,2496
715,00;78,2344
716,00;-15,5186
717,00;-54,0987
718,00;-27,4245
719,00;156,8741
720,00;41,2701
721,00;82,6966
722,00;-163,3811
723,00;-34,1577
724,00;-31,8391
725,00;-11,8432
726,00;20,7784
727,00;160,8649
728,00;113,5566
729,00;-30,1221
730,00;-125,6661
731,00;17,7149
732,00;-121,2364
733,00;-77,7925
734,00;109,9041
735,00;44,4208
736,00;186,3079
737,00;283,3031
738,00;631,3547
739,00;302,6827
740,00;16,1881
741,00;243,6880
742,00;178,0610
743,00;97,9761
744,00;482,0869
745,00;103,0608
746,00;46,7735
747,00;33,3163
748,00;-63,2831
749,00;-34,1302
750,00;2243,3680
751,00;1925,1960
752,00;528,3163
753,00;59,9905
754,00;-4,5348
755,00;6,1946
756,00;-15,9820
757,00;-11,5760
758,00;-217,4248
759,00;-80,4780
760,00;165,0569
761,00;223,0071
762,00;-26,7053
763,00;1151,9840
764,00;725,0338
765,00;-102,3820
766,00;2,0469
767,00;-107,2049
768,00;-122,9082
769,00;-63,7112
770,00;-78,5156
771,00;-81,8619
772,00;313,9512
773,00;171,6626
774,00;-29,1694
775,00;-104,1037
776,00;103,7509
777,00;3004,1860
778,00;1234,7380
779,00;7,5121
780,00;10,0412
781,00;-84,2266
782,00;-84,5790
783,00;49,8329
784,00;94,0595
785,00;-141,9533
786,00;-103,3860
787,00;-1,6344
788,00;-15,3207
789,00;-42,2488
790,00;-54,5504
791,00;-117,4606
792,00;-91,5922
793,00;-85,9244
794,00;194,8650
795,00;237,7059
796,00;12,5300
797,00;18,7800
798,00;-36,0995
799,00;-94,7827
800,00;220,2763
801,00;290,1560
802,00;127,8766
803,00;-80,1802
804,00;-169,2628
805,00;-11,8966
806,00;-166,8948
807,00;73,2512
808,00;-74,3342
809,00;-46,1412
810,00;435,8125
811,00;1007,4140
812,00;789,2920
813,00;-83,8798
814,00;-9,0114
815,00;-87,2224
816,00;-97,1829
817,00;21,7695
818,00;-73,1744
819,00;-29,2481
820,00;-72,1097
821,00;15,3990
822,00;-50,1269
823,00;-169,2836
824,00;-86,2726
825,00;-106,5163
826,00;148,6289
827,00;-21,3193
828,00;-81,5730
829,00;-72,1528
830,00;-145,8761
831,00;32,5570
832,00;-207,4980
833,00;-69,0350
834,00;-131,9208
835,00;-123,3784
836,00;-12,9398
837,00;47,9581
838,00;-19,9655
839,00;75,4870
840,00;136,1927
841,00;258,6954
842,00;382,7687
843,00;284,6886
844,00;263,8854
845,00;503,6147
846,00;-37,7917
847,00;-78,6268
848,00;12,9686
849,00;-155,2384
850,00;-160,1516
851,00;-98,1196
852,00;55,3058
853,00;-178,8202
854,00;-31,0171
855,00;-68,8975
856,00;74,3802
857,00;4,2549
858,00;-104,7911
859,00;25,1172
860,00;46,9651
861,00;-62,7805
862,00;-94,6995
863,00;-20,3806
864,00;-119,8644
865,00;-65,1277
866,00;-24,0755
867,00;-86,1225
868,00;-29,7585
869,00;36,3186
870,00;5,5854
871,00;-101,3644
872,00;-103,1681
873,00;-39,5677
874,00;-47,6602
875,00;49,5665
876,00;-87,4435
877,00;229,2853
878,00;-76,7136
879,00;-45,5805
880,00;67,3672
881,00;-28,9775
882,00;-33,9685
883,00;-15,8589
884,00;141,7918
885,00;-110,1739
886,00;-106,5025
887,00;-56,9527
888,00;-38,8634
889,00;-59,8266
890,00;-41,2713
891,00;69,5298
892,00;-91,5741
893,00;76,7287
894,00;-160,9606
895,00;-71,2485
896,00;-141,1085
897,00;-61,4625
898,00;-13,2371
899,00;-54,2555
900,00;-175,6994
901,00;93,2540
902,00;44,3721
903,00;-28,0221
904,00;-41,4786
905,00;-1,9884
906,00;-210,9297
907,00;-139,3177
908,00;-136,1648
909,00;-117,2335
910,00;-199,2263
911,00;-48,5241
912,00;375,1017
913,00;217,2910
914,00;31,6328
915,00;-15,6397
916,00;-53,0128
917,00;-41,9245
918,00;-93,9680
919,00;-0,1480
920,00;-95,1339
921,00;-84,6115
922,00;-12,9144
923,00;-15,3994
924,00;-58,5199
925,00;18,9622
926,00;122,9190
927,00;140,5287
928,00;-43,7594
929,00;-51,1441
930,00;-134,1273
931,00;-103,0940
932,00;-84,8211
933,00;-108,6141
934,00;-21,1197
935,00;-23,1708
936,00;129,2302
937,00;56,3769
938,00;74,4226
939,00;-18,7510
940,00;-70,3920
941,00;-137,8749
942,00;-151,7929
943,00;-125,7894
944,00;-160,6242
945,00;4,7508
946,00;-93,0141
947,00;79,4491
948,00;-16,8917
949,00;-98,6548
950,00;-108,3126
951,00;136,1539
952,00;-153,1896
953,00;-109,4229
954,00;-130,1656
955,00;-29,0922
956,00;-154,8105
957,00;-90,9664
958,00;-126,8659
959,00;26,0042
960,00;-121,4228
961,00;-100,6444
962,00;-42,4270
963,00;146,9094
964,00;-44,5542
965,00;-68,8858
966,00;89,2853
967,00;181,5231
968,00;-6,9981
969,00;-97,6762
970,00;-137,1212
971,00;-57,3939
972,00;3,9887
973,00;-14,3889
974,00;-168,6606
975,00;132,2044
976,00;11,9135
977,00;-170,8639
978,00;-101,6678
979,00;-6,3220
980,00;-157,4663
981,00;-46,9264
982,00;-140,8485
983,00;-78,7026
984,00;-192,4732
985,00;-42,3661
986,00;20,4392
987,00;95,6866
988,00;65,3224
989,00;-54,7392
990,00;87,3450
991,00;-120,0423
992,00;-30,6232
993,00;-15,3287
994,00;-192,3148
995,00;-33,7107
996,00;-126,9621
997,00;-47,7360
998,00;-60,2839
999,00;-155,5912
1000,00;127,3748
1001,00;83,6279
1002,00;-67,8720
1003,00;-8,5288
1004,00;-39,0517
1005,00;-77,8937
1006,00;-112,1656
1007,00;-57,8700
1008,00;48,6732
1009,00;-51,0685
1010,00;-17,7831
1011,00;52,8250
1012,00;9,4880
1013,00;-126,7913
1014,00;153,6824
1015,00;152,1012
1016,00;-108,2287
1017,00;-115,2339
1018,00;-41,1063
1019,00;-153,2481
1020,00;-92,6875
1021,00;-58,5796
1022,00;-189,3085
1023,00;-16,3466
1024,00;-71,4005
1025,00;38,0884
1026,00;100,9586
1027,00;-33,8696
1028,00;-6,9614
1029,00;0,4349
1030,00;-56,1949
1031,00;-110,0396
1032,00;-38,9742
1033,00;19,8804
1034,00;-153,3942
1035,00;-174,2660
1036,00;75,1552
1037,00;-105,1818
1038,00;-100,7824
1039,00;10,2470
1040,00;-103,9108
1041,00;13,5033
1042,00;-28,8485
1043,00;89,5982
1044,00;320,7640
1045,00;-37,6173
1046,00;-101,3343
1047,00;52,1951
1048,00;-11,4313
1049,00;-82,9319
1050,00;-81,4981
1051,00;-83,3526
1052,00;-34,5340
1053,00;-190,3709
1054,00;-31,0973
1055,00;-136,0600
1056,00;-120,3464
1057,00;-105,4043
1058,00;83,4525
1059,00;13,4528
1060,00;-36,3324
1061,00;-99,7845
1062,00;-52,6281
1063,00;-122,1227
1064,00;-10,3806
1065,00;-57,7903
1066,00;-23,4277
1067,00;-17,0939
1068,00;-156,6363
1069,00;-93,0504
1070,00;-77,5572
1071,00;-100,8838
1072,00;32,3666
1073,00;12,5024
1074,00;-42,8633
1075,00;-12,5654
1076,00;-77,9326
1077,00;-84,3963
1078,00;-62,9609
1079,00;1,2208
1080,00;-144,2487
1081,00;-61,0718
1082,00;-71,8393
1083,00;-174,9752
1084,00;-19,2375
1085,00;-45,1096
1086,00;19,2685
1087,00;-73,9835
1088,00;-9,1893
1089,00;102,1607
1090,00;-119,9321
1091,00;100,3160
1092,00;-44,3627
1093,00;80,2509
1094,00;28,2138
1095,00;25,5366
1096,00;-123,3238
1097,00;-77,5303
1098,00;-91,5679
1099,00;-95,6010
1100,00;-83,3153
