M- hg-calibration
Integration time: 5 ms
Average: 1 scans
Nr of pixels used for smoothing: 0
Data measured with spectrometer serial number: 0501039S2
Wave   ;Sample
[nm]   ;[counts]
200,00;16,5750
201,00;-9,3644
202,00;-3,6690
203,00;14,5060
204,00;-11,0994
205,00;-6,7602
206,00;-7,4040
207,00;-0,9987
208,00;-8,5294
209,00;-2,3657
210,00;-24,0960
211,00;0,0308
212,00;5,7522
213,00;-0,6361
214,00;-4,5577
215,00;-13,0150
216,00;-0,5894
217,00;6,0731
218,00;-8,1396
219,00;-9,7402
220,00;-19,0889
221,00;-7,7130
222,00;11,9763
223,00;9,6472
224,00;15,0894
225,00;-9,2318
226,00;11,8297
227,00;-1,6895
228,00;-0,9422
229,00;-9,5996
230,00;2,7035
231,00;-5,2016
232,00;-5,7694
233,00;-0,2270
234,00;-1,4682
235,00;-17,4314
236,00;-4,6286
237,00;2,0161
238,00;-7,5126
239,00;-7,5122
240,00;-16,5491
241,00;-2,0338
242,00;3,3046
243,00;5,3139
244,00;-17,8172
245,00;-1,0767
246,00;0,1234
247,00;8,8503
248,00;-6,9027
249,00;-10,0875
250,00;-16,9369
251,00;-19,4536
252,00;8,0217
253,00;10,2168
254,00;-15,1930
255,00;-3,1676
256,00;-11,7878
257,00;-7,6181
258,00;-7,0602
259,00;-3,8947
260,00;4,9779
261,00;8,5353
262,00;23,7808
263,00;-10,5928
264,00;-8,7539
265,00;6,1878
266,00;9,0846
267,00;-2,2393
268,00;-1,1232
269,00;-3,6974
270,00;-6,4009
271,00;1,1302
272,00;2,0471
273,00;-6,9300
274,00;-4,2684
275,00;-10,1309
276,00;-14,1194
277,00;5,4264
278,00;-7,9458
279,00;-7,2119
280,00;4,3704
281,00;13,5004
282,00;-3,3631
283,00;-13,6079
284,00;-14,7150
285,00;5,2980
286,00;2,8756
287,00;-14,2588
288,00;-16,5646
289,00;4,4109
290,00;7,8292
291,00;6,2659
292,00;-2,8351
293,00;3,7354
294,00;-0,3842
295,00;4,6387
296,00;-5,9217
297,00;-7,9220
298,00;-2,8374
299,00;4,1507
300,00;14,1792
301,00;21,0653
302,00;19,7939
303,00;-0,7500
304,00;12,2107
305,00;-0,3715
306,00;-6,2898
307,00;-7,5494
308,00;3,4359
309,00;20,1760
310,00;-2,4093
311,00;8,1477
312,00;45,9629
313,00;68,1544
314,00;30,8733
315,00;16,3098
316,00;26,2176
317,00;8,6961
318,00;16,8056
319,00;37,2892
320,00;45,8812
321,00;27,2470
322,00;16,0615
323,00;38,0743
324,00;39,6898
325,00;19,1445
326,00;16,1815
327,00;32,9719
328,00;48,4841
329,00;30,3156
330,00;33,0206
331,00;29,4881
332,00;37,8522
333,00;44,1318
334,00;59,2536
335,00;44,5498
336,00;36,2991
337,00;40,7738
338,00;40,4956
339,00;51,1260
340,00;48,6450
341,00;40,6006
342,00;55,8341
343,00;35,1826
344,00;60,5241
345,00;36,0274
346,00;26,9854
347,00;55,9216
348,00;32,5858
349,00;37,0246
350,00;29,3193
351,00;22,5325
352,00;22,4537
353,00;53,4050
354,00;36,4080
355,00;15,5000
356,00;20,0912
357,00;24,3327
358,00;41,2100
359,00;20,5417
360,00;16,1639
361,00;32,1368
362,00;30,8369
363,00;30,1765
364,00;203,0915
365,00;849,4381
366,00;270,0514
367,00;45,7789
368,00;30,3208
369,00;25,2104
370,00;20,6147
371,00;20,2018
372,00;28,2638
373,00;21,0009
374,00;-3,5313
375,00;7,7505
376,00;16,2239
377,00;30,8045
378,00;20,2964
379,00;28,6940
380,00;52,8784
381,00;44,7437
382,00;46,5392
383,00;16,8612
384,00;13,5224
385,00;6,5205
386,00;9,4507
387,00;16,3346
388,00;12,0083
389,00;10,7406
390,00;25,9708
391,00;20,7437
392,00;17,7029
393,00;11,5577
394,00;-5,3160
395,00;14,5712
396,00;24,4052
397,00;19,9413
398,00;16,3212
399,00;20,7119
400,00;43,1342
401,00;88,7410
402,00;68,7272
403,00;149,1674
404,00;3729,6330
405,00;2499,2090
406,00;204,9561
407,00;279,7206
408,00;350,3987
409,00;152,1145
410,00;151,7656
411,00;179,9962
412,00;168,3381
413,00;178,2303
414,00;231,2715
415,00;224,8943
416,00;238,9910
417,00;270,5045
418,00;275,5708
419,00;301,0457
420,00;305,0289
421,00;366,0012
422,00;386,9164
423,00;398,8105
424,00;397,6595
425,00;456,1450
426,00;500,6855
427,00;563,9772
428,00;564,8557
429,00;601,5549
430,00;617,5496
431,00;681,8375
432,00;660,5811
433,00;784,2147
434,00;1013,4820
435,00;8555,7900
436,00;11738,9800
437,00;1178,7410
438,00;963,0301
439,00;857,5333
440,00;797,3249
441,00;741,8157
442,00;762,7648
443,00;718,7125
444,00;644,2578
445,00;661,8941
446,00;771,4874
447,00;824,1653
448,00;820,5028
449,00;787,3108
450,00;750,5493
451,00;742,7363
452,00;712,1464
453,00;722,8721
454,00;751,2728
455,00;718,3883
456,00;762,6880
457,00;757,3295
458,00;728,8771
459,00;696,5787
460,00;701,5412
461,00;679,9130
462,00;700,5413
463,00;700,4342
464,00;684,1167
465,00;639,9838
466,00;663,0234
467,00;652,5520
468,00;602,5649
469,00;580,0894
470,00;559,9187
471,00;564,3537
472,00;545,6021
473,00;566,6540
474,00;513,8176
475,00;495,5146
476,00;461,4580
477,00;493,8523
478,00;443,0384
479,00;461,7944
480,00;494,6395
481,00;554,0478
482,00;737,5847
483,00;1058,8080
484,00;1448,2940
485,00;2044,3900
486,00;2482,2590
487,00;2618,8380
488,00;2502,8440
489,00;2400,7800
490,00;2256,1620
491,00;2048,5710
492,00;1867,7990
493,00;1685,8270
494,00;1516,6810
495,00;1263,1420
496,00;1152,8870
497,00;1181,6250
498,00;980,8649
499,00;735,1455
500,00;540,3167
501,00;405,3588
502,00;307,0707
503,00;243,9834
504,00;223,8476
505,00;180,7961
506,00;153,9260
507,00;146,7878
508,00;136,6084
509,00;121,5856
510,00;139,1904
511,00;110,7718
512,00;125,3868
513,00;138,7429
514,00;144,4473
515,00;137,7562
516,00;118,6706
517,00;115,4601
518,00;101,9546
519,00;102,2087
520,00;89,4341
521,00;72,2701
522,00;69,2500
523,00;92,7090
524,00;91,7068
525,00;101,6343
526,00;95,2047
527,00;84,1378
528,00;114,1884
529,00;87,9353
530,00;106,7522
531,00;113,5387
532,00;170,2990
533,00;381,9871
534,00;319,6702
535,00;349,6545
536,00;377,8492
537,00;638,9675
538,00;1349,6880
539,00;2036,3280
540,00;3210,4940
541,00;5837,3810
542,00;12196,2000
543,00;14518,5600
544,00;14184,1600
545,00;12818,4200
546,00;15065,1000
547,00;5584,0900
548,00;3656,1640
549,00;4176,3590
550,00;3461,8330
551,00;2741,0630
552,00;2835,9540
553,00;2247,6580
554,00;1327,5580
555,00;733,0381
556,00;515,6801
557,00;396,0830
558,00;355,8732
559,00;303,0820
560,00;240,3630
561,00;244,2020
562,00;216,4902
563,00;202,8734
564,00;179,0428
565,00;153,4193
566,00;143,5391
567,00;109,5952
568,00;155,9047
569,00;150,6968
570,00;138,9761
571,00;157,8050
572,00;207,3840
573,00;250,5780
574,00;254,8554
575,00;311,6404
576,00;765,3290
577,00;1793,8800
578,00;787,9567
579,00;1961,8010
580,00;2137,4840
581,00;1715,1780
582,00;2010,3910
583,00;2760,1040
584,00;2876,1520
585,00;2297,3800
586,00;2154,4950
587,00;3721,2490
588,00;3123,7190
589,00;1966,9530
590,00;1732,5250
591,00;1577,6750
592,00;1631,3140
593,00;2266,9700
594,00;1266,9450
595,00;734,4805
596,00;636,2402
597,00;642,2368
598,00;751,8408
599,00;1146,9050
600,00;1107,9610
601,00;657,0963
602,00;472,7810
603,00;419,5498
604,00;446,7480
605,00;503,4022
606,00;624,2391
607,00;768,3196
608,00;1065,7970
609,00;1924,4070
610,00;5454,7750
611,00;15082,0400
612,00;11128,8900
613,00;5127,4990
614,00;3914,2120
615,00;3465,7510
616,00;2795,1680
617,00;2094,0480
618,00;1766,3070
619,00;1781,7110
620,00;2057,8370
621,00;2120,5760
622,00;1679,1200
623,00;1329,3550
624,00;1284,3150
625,00;1119,4460
626,00;932,4058
627,00;888,8059
628,00;852,2802
629,00;949,5326
630,00;1391,8040
631,00;1952,8230
632,00;857,8525
633,00;411,9222
634,00;292,6582
635,00;244,8950
636,00;213,2667
637,00;208,7394
638,00;184,9086
639,00;179,1481
640,00;156,0523
641,00;168,4737
642,00;198,9427
643,00;218,8246
644,00;202,2104
645,00;178,1208
646,00;223,5806
647,00;197,6470
648,00;217,0385
649,00;243,8445
650,00;578,5734
651,00;537,4093
652,00;273,8428
653,00;276,4764
654,00;187,5723
655,00;153,7749
656,00;123,7386
657,00;144,4933
658,00;162,3317
659,00;120,3315
660,00;85,5723
661,00;127,7592
662,00;336,3766
663,00;297,7798
664,00;176,2253
665,00;126,7339
666,00;150,8029
667,00;184,4980
668,00;174,2329
669,00;144,6808
670,00;156,4188
671,00;132,8782
672,00;102,6229
673,00;100,7597
674,00;105,2490
675,00;104,1566
676,00;105,6705
677,00;114,2115
678,00;119,7830
679,00;171,3331
680,00;124,3007
681,00;105,8115
682,00;113,8478
683,00;75,6045
684,00;93,8047
685,00;51,0341
686,00;107,2734
687,00;218,0669
688,00;249,8525
689,00;124,6568
690,00;81,5200
691,00;74,2385
692,00;48,5142
693,00;182,9005
694,00;180,1318
695,00;47,4870
696,00;29,3523
697,00;25,4104
698,00;30,4955
699,00;35,0325
700,00;21,3005
701,00;12,4273
702,00;53,1960
703,00;78,0314
704,00;107,0356
705,00;144,9644
706,00;383,1649
707,00;591,5352
708,00;463,3140
709,00;719,7065
710,00;224,0474
711,00;217,0688
712,00;537,5161
713,00;277,9246
714,00;64,1548
715,00;39,7927
716,00;36,1038
717,00;11,2490
718,00;30,0428
719,00;-13,6470
720,00;26,0913
721,00;14,3145
722,00;15,8604
723,00;-13,0306
724,00;8,9424
725,00;12,8621
726,00;26,0168
727,00;15,2097
728,00;8,3501
729,00;16,7133
730,00;2,8452
731,00;36,5565
732,00;6,6644
733,00;7,4683
734,00;8,8284
735,00;15,8907
736,00;5,6746
737,00;-11,6420
738,00;6,7553
739,00;6,3226
740,00;4,3506
741,00;13,0918
742,00;21,6379
743,00;20,7141
744,00;4,9858
745,00;28,6273
746,00;-13,4182
747,00;4,3673
748,00;9,9886
749,00;6,3044
750,00;-8,6343
751,00;6,7090
752,00;20,4761
753,00;9,7058
754,00;3,5085
755,00;-16,8185
756,00;3,9576
757,00;2,0049
758,00;10,5582
759,00;-2,1567
760,00;22,4625
761,00;-8,1163
762,00;17,1764
763,00;2,9563
764,00;-6,0131
765,00;-2,6775
766,00;-13,7153
767,00;-12,3472
768,00;-8,9095
769,00;-5,8877
770,00;5,0215
771,00;-12,7882
772,00;-11,4385
773,00;-4,4214
774,00;-16,9130
775,00;0,1433
776,00;18,4946
777,00;-11,5905
778,00;-4,9954
779,00;4,6451
780,00;8,0376
781,00;-9,7673
782,00;-21,9883
783,00;-10,0995
784,00;-5,2378
785,00;2,9287
786,00;-8,2214
787,00;10,8550
788,00;-11,2710
789,00;5,1665
790,00;21,1836
791,00;-19,2393
792,00;-6,1094
793,00;-0,9880
794,00;-5,5244
795,00;-11,5222
796,00;28,9954
797,00;-0,7968
798,00;4,7441
799,00;6,3002
800,00;-11,6724
801,00;-10,7488
802,00;-13,7302
803,00;5,2500
804,00;0,2822
805,00;-8,8638
806,00;-13,6034
807,00;8,5796
808,00;-4,5481
809,00;-13,2632
810,00;-7,3438
811,00;23,4434
812,00;10,2104
813,00;-10,8752
814,00;-2,8116
815,00;2,7769
816,00;12,3306
817,00;4,0532
818,00;-11,6079
819,00;-17,6925
820,00;-15,8965
821,00;1,6046
822,00;-2,8749
823,00;-13,9664
824,00;2,0480
825,00;-14,4805
826,00;10,2418
827,00;1,2852
828,00;-9,3727
829,00;-0,6284
830,00;15,6902
831,00;-7,6356
832,00;-16,8733
833,00;-6,0667
834,00;16,5295
835,00;5,3260
836,00;-0,2646
837,00;-22,6300
838,00;-12,9807
839,00;-4,1367
840,00;-25,7578
841,00;-10,0178
842,00;-4,2568
843,00;13,7950
844,00;-11,5602
845,00;3,2368
846,00;-12,9886
847,00;-26,8411
848,00;-0,8887
849,00;-3,8762
850,00;-16,1636
851,00;1,1772
852,00;-6,7061
853,00;6,6528
854,00;-17,7500
855,00;-13,2712
856,00;-23,8779
857,00;-8,2767
858,00;-14,1179
859,00;-14,1472
860,00;-13,9224
861,00;-11,4445
862,00;0,3090
863,00;-9,4250
864,00;-6,2440
865,00;-4,8550
866,00;-0,0859
867,00;-18,9003
868,00;-13,8669
869,00;-7,8965
870,00;11,9390
871,00;19,2891
872,00;-12,9812
873,00;-22,2078
874,00;-17,6714
875,00;-15,9321
876,00;-9,4329
877,00;2,9766
878,00;-9,1899
879,00;1,2499
880,00;-8,0145
881,00;-18,1677
882,00;-2,7715
883,00;-19,5493
884,00;-8,0813
885,00;-3,1902
886,00;-17,5013
887,00;-3,0870
888,00;-0,0850
889,00;3,0239
890,00;-22,7302
891,00;-15,6318
892,00;2,1199
893,00;-12,2876
894,00;-8,1688
895,00;2,3059
896,00;-3,8252
897,00;3,0918
898,00;-14,5881
899,00;-11,7726
900,00;-13,7845
901,00;-15,9034
902,00;-10,8658
903,00;-17,6221
904,00;-27,8394
905,00;0,0898
906,00;-6,1836
907,00;0,9043
908,00;4,2500
909,00;-6,2793
910,00;-12,8541
911,00;-12,5605
912,00;-8,4858
913,00;-2,5789
914,00;-3,7407
915,00;9,1870
916,00;-10,2374
917,00;-5,3279
918,00;-8,6558
919,00;-12,4180
920,00;13,3535
921,00;-2,3184
922,00;-18,3481
923,00;-7,4902
924,00;7,3486
925,00;6,7451
926,00;-10,5161
927,00;5,7278
928,00;-2,2356
929,00;-8,1636
930,00;2,4088
931,00;5,4727
932,00;-9,6965
933,00;-15,8975
934,00;2,2397
935,00;6,3820
936,00;-6,2905
937,00;8,3745
938,00;-7,4755
939,00;-5,5247
940,00;-7,8458
941,00;-9,4233
942,00;-5,9941
943,00;2,7213
944,00;10,0293
945,00;10,2239
946,00;-16,2795
947,00;-13,1344
948,00;7,4905
949,00;-6,9716
950,00;-26,7122
951,00;-13,7500
952,00;2,9078
953,00;-1,5405
954,00;-6,0547
955,00;-3,1345
956,00;19,2075
957,00;-0,2700
958,00;-8,0149
959,00;2,2500
960,00;-13,7749
961,00;-4,5059
962,00;-11,4609
963,00;-10,0576
964,00;-2,6787
965,00;-0,5516
966,00;-12,0074
967,00;-3,0771
968,00;-9,4283
969,00;-10,7549
970,00;10,9238
971,00;-0,1560
972,00;-8,5859
973,00;-5,7253
974,00;-18,5171
975,00;-6,5686
976,00;-16,3848
977,00;-11,4668
978,00;-4,8276
979,00;8,5212
980,00;1,4010
981,00;-8,0203
982,00;6,2651
983,00;-17,2332
984,00;-10,7061
985,00;-3,6628
986,00;-10,4136
987,00;-12,2798
988,00;-13,1777
989,00;-5,0083
990,00;-20,8209
991,00;-18,7980
992,00;4,9668
993,00;-9,2075
994,00;-1,8052
995,00;-3,1238
996,00;4,8904
997,00;5,6196
998,00;-2,5734
999,00;-19,1235
1000,00;2,3744
1001,00;-0,0481
1002,00;-10,3574
1003,00;-20,3914
1004,00;1,0876
1005,00;7,0076
1006,00;-6,5292
1007,00;-10,3574
1008,00;-1,9142
1009,00;-2,9202
1010,00;-1,3157
1011,00;-17,7500
1012,00;-13,0420
1013,00;-6,3972
1014,00;2,3936
1015,00;10,7578
1016,00;-8,6898
1017,00;-5,9238
1018,00;2,7787
1019,00;-9,4965
1020,00;-12,7205
1021,00;-12,3711
1022,00;-6,6041
1023,00;-10,3223
1024,00;-2,7542
1025,00;-14,3364
1026,00;-5,2031
1027,00;10,7668
1028,00;-15,2119
1029,00;-30,4907
1030,00;-37,7919
1031,00;-22,1460
1032,00;-2,2219
1033,00;-9,6763
1034,00;-4,5408
1035,00;-10,9850
1036,00;-0,8083
1037,00;4,4102
1038,00;-14,5703
1039,00;-10,6116
1040,00;5,2393
1041,00;-6,3694
1042,00;-15,3573
1043,00;0,7617
1044,00;4,9446
1045,00;-13,4343
1046,00;-29,9359
1047,00;-9,6162
1048,00;-12,9650
1049,00;0,8168
1050,00;-20,0510
1051,00;-12,0375
1052,00;-10,8638
1053,00;-2,7285
1054,00;-13,4199
1055,00;-1,1587
1056,00;-13,2771
1057,00;-3,8505
1058,00;0,6326
1059,00;-23,7856
1060,00;-3,8220
1061,00;1,0967
1062,00;-4,9644
1063,00;-15,7054
1064,00;-12,9823
1065,00;-10,4808
1066,00;-0,9534
1067,00;-2,7097
1068,00;1,9199
1069,00;-6,3406
1070,00;-3,2856
1071,00;3,8018
1072,00;-4,1675
1073,00;-12,8705
1074,00;-13,8337
1075,00;6,7715
1076,00;-13,4609
1077,00;-12,7290
1078,00;0,0234
1079,00;-2,1880
1080,00;-10,7065
1081,00;-7,3242
1082,00;-23,2725
1083,00;-2,1409
1084,00;3,2100
1085,00;2,3613
1086,00;-10,2524
1087,00;9,2776
1088,00;-9,9194
1089,00;-10,1910
1090,00;-20,6287
1091,00;-2,5547
1092,00;-3,8074
1093,00;-1,5293
1094,00;3,2500
1095,00;-14,7134
1096,00;-4,7175
1097,00;-6,2267
1098,00;-4,4579
1099,00;-4,3408
1100,00;-2,9408
