M- 12.7Pa 30W 25-50
Integration time: 1000 ms
Average: 20 scans
Nr of pixels used for smoothing: 0
Data measured with spectrometer serial number: 0501039S2
Wave   ;Sample
[nm]   ;[counts]
200,00;-184,6764
201,00;-4,2661
202,00;-94,7997
203,00;-197,8007
204,00;-20,7160
205,00;-132,6304
206,00;-186,9276
207,00;-77,9845
208,00;-17,5239
209,00;110,4958
210,00;-169,9807
211,00;-65,9810
212,00;-125,4535
213,00;-40,5384
214,00;-68,3483
215,00;-56,8448
216,00;-92,6732
217,00;-121,5205
218,00;-134,6829
219,00;-111,6730
220,00;414,3283
221,00;26,9086
222,00;60,4295
223,00;-184,0344
224,00;-182,3657
225,00;94,2922
226,00;-33,7634
227,00;-59,6296
228,00;134,7357
229,00;-128,7939
230,00;19,3760
231,00;-80,0533
232,00;57,5408
233,00;54,4080
234,00;-101,3924
235,00;-37,1212
236,00;-106,2491
237,00;-57,8145
238,00;18,6690
239,00;0,1232
240,00;-190,6058
241,00;-174,0084
242,00;-75,7662
243,00;-160,7184
244,00;159,9607
245,00;46,8195
246,00;-132,4821
247,00;-182,5294
248,00;7,9310
249,00;39,5718
250,00;-33,6105
251,00;161,1718
252,00;-138,4330
253,00;29,8685
254,00;-275,7473
255,00;-172,3347
256,00;-127,2048
257,00;65,6053
258,00;-65,7690
259,00;7,7495
260,00;-124,9783
261,00;0,4611
262,00;60,6266
263,00;-149,7226
264,00;73,9633
265,00;52,8099
266,00;-14,4362
267,00;213,8902
268,00;-79,4058
269,00;138,6602
270,00;-96,1337
271,00;10,5457
272,00;-58,4420
273,00;-39,7032
274,00;-5,7643
275,00;86,6907
276,00;-25,8929
277,00;-120,5988
278,00;-85,7907
279,00;-97,0745
280,00;-84,9446
281,00;-3,2438
282,00;-6,4128
283,00;-0,1929
284,00;-109,6720
285,00;-200,6850
286,00;-34,8628
287,00;-69,3942
288,00;-97,3968
289,00;-94,2112
290,00;-75,2036
291,00;-117,8487
292,00;-123,1988
293,00;-11,6331
294,00;-2,5235
295,00;16,1286
296,00;-126,2399
297,00;-127,9749
298,00;-142,5811
299,00;-118,9282
300,00;-70,1886
301,00;49,9713
302,00;-109,4863
303,00;-95,5614
304,00;-90,6466
305,00;-108,8620
306,00;-57,0171
307,00;66,4943
308,00;6,7013
309,00;-76,5771
310,00;-152,1166
311,00;-17,7234
312,00;-48,4220
313,00;-10,4760
314,00;-39,2529
315,00;-115,4266
316,00;39,2916
317,00;-183,5969
318,00;-102,0313
319,00;30,7845
320,00;-116,1712
321,00;-23,1012
322,00;-116,8987
323,00;-182,9115
324,00;-21,5613
325,00;100,0103
326,00;-42,5299
327,00;-149,5863
328,00;-80,2230
329,00;-5,9101
330,00;-79,4413
331,00;-108,8705
332,00;9,8700
333,00;-57,7161
334,00;-29,2641
335,00;-159,9429
336,00;-93,3973
337,00;82,2382
338,00;-14,9782
339,00;-28,0730
340,00;-47,2488
341,00;-114,7629
342,00;-71,4554
343,00;20,5419
344,00;-21,5930
345,00;-111,2773
346,00;213,4232
347,00;-108,0662
348,00;-91,6846
349,00;-172,1679
350,00;-74,6134
351,00;9,4448
352,00;-9,1531
353,00;-104,8628
354,00;86,4850
355,00;-193,1533
356,00;-20,6931
357,00;-55,2194
358,00;114,2103
359,00;25,7410
360,00;-72,4737
361,00;-166,2120
362,00;-169,0044
363,00;-149,4624
364,00;-151,1603
365,00;-13,9682
366,00;-28,0558
367,00;157,4587
368,00;-125,0522
369,00;16,7366
370,00;-3,7355
371,00;-29,9182
372,00;-161,5575
373,00;-88,2800
374,00;-129,7483
375,00;51,0060
376,00;-52,1794
377,00;48,1053
378,00;-132,1823
379,00;63,5172
380,00;128,5451
381,00;-109,2719
382,00;9,5522
383,00;-90,2551
384,00;12,9786
385,00;-41,7538
386,00;99,4829
387,00;-94,4719
388,00;-89,0075
389,00;-79,2390
390,00;58,4419
391,00;176,4061
392,00;88,6416
393,00;-134,5345
394,00;-69,8939
395,00;88,5580
396,00;82,0277
397,00;-115,8237
398,00;-46,4613
399,00;18,0879
400,00;-74,2293
401,00;-72,7575
402,00;-155,7553
403,00;-114,3737
404,00;96,9509
405,00;221,4740
406,00;152,2824
407,00;-48,2531
408,00;-63,7228
409,00;67,2955
410,00;-83,0297
411,00;36,1168
412,00;90,6328
413,00;11,3879
414,00;-52,0934
415,00;31,3007
416,00;388,1135
417,00;-15,3914
418,00;199,8046
419,00;526,9335
420,00;862,5996
421,00;-152,3620
422,00;-12,2340
423,00;34,4189
424,00;97,6839
425,00;298,8162
426,00;893,2724
427,00;405,9152
428,00;132,7965
429,00;64,8141
430,00;245,7716
431,00;193,5203
432,00;-38,4977
433,00;243,6237
434,00;98,3539
435,00;-64,8928
436,00;56,2278
437,00;260,3861
438,00;94,8589
439,00;152,9011
440,00;-7,3920
441,00;-47,9381
442,00;-30,6800
443,00;155,8563
444,00;49,5517
445,00;174,5856
446,00;-19,7511
447,00;-69,1236
448,00;-126,8292
449,00;-30,9861
450,00;43,2837
451,00;416,8659
452,00;-13,9281
453,00;-3,2846
454,00;-41,7407
455,00;-71,5929
456,00;-66,4966
457,00;47,4853
458,00;9,9415
459,00;-38,0250
460,00;-94,1782
461,00;-6,4772
462,00;-102,0422
463,00;74,1302
464,00;-0,7629
465,00;256,2903
466,00;91,4423
467,00;30,8234
468,00;-97,5517
469,00;24,6544
470,00;-71,2932
471,00;-4,5787
472,00;-24,9933
473,00;67,9040
474,00;-97,8500
475,00;90,2957
476,00;49,6962
477,00;-3,4472
478,00;32,2339
479,00;56,5683
480,00;88,2634
481,00;72,8653
482,00;-70,6851
483,00;-10,8224
484,00;11,9195
485,00;-87,3280
486,00;-27,9230
487,00;21,8695
488,00;65,9793
489,00;77,0129
490,00;-134,5401
491,00;204,4294
492,00;47,3525
493,00;-84,4744
494,00;127,9107
495,00;102,6946
496,00;52,1394
497,00;94,8030
498,00;222,6219
499,00;104,8323
500,00;-33,3483
501,00;58,0486
502,00;-24,0395
503,00;-50,3841
504,00;17,5875
505,00;124,4821
506,00;-5,3921
507,00;-11,3752
508,00;-24,6151
509,00;88,5798
510,00;4,9174
511,00;-139,7087
512,00;55,4198
513,00;-29,5294
514,00;44,5165
515,00;-3,8891
516,00;354,2757
517,00;-16,3955
518,00;36,2138
519,00;138,7310
520,00;-88,5023
521,00;122,4522
522,00;266,7793
523,00;375,7051
524,00;347,2671
525,00;645,6317
526,00;608,8879
527,00;426,0922
528,00;441,0299
529,00;273,5926
530,00;284,9193
531,00;64,8700
532,00;-51,4536
533,00;125,1672
534,00;-60,8348
535,00;-9,7665
536,00;34,4614
537,00;41,0936
538,00;66,1552
539,00;-78,2394
540,00;-169,9692
541,00;-112,1561
542,00;126,7042
543,00;111,9884
544,00;322,7130
545,00;203,9099
546,00;19,0633
547,00;-76,2923
548,00;115,6011
549,00;89,4570
550,00;288,3195
551,00;44,7811
552,00;97,0441
553,00;355,3502
554,00;94,6334
555,00;388,9493
556,00;636,1909
557,00;776,9685
558,00;1316,3710
559,00;1409,1570
560,00;1466,0950
561,00;1230,4790
562,00;1000,7050
563,00;487,6081
564,00;153,9834
565,00;130,7058
566,00;21,2440
567,00;121,4663
568,00;229,9800
569,00;-5,9043
570,00;66,2529
571,00;177,2463
572,00;107,8566
573,00;38,4961
574,00;249,6401
575,00;110,3777
576,00;-61,5095
577,00;16,1670
578,00;-40,8820
579,00;38,9031
580,00;169,0657
581,00;221,8417
582,00;144,7248
583,00;99,6660
584,00;137,8400
585,00;134,4298
586,00;455,5851
587,00;272,2540
588,00;310,3738
589,00;340,8669
590,00;243,3382
591,00;441,7897
592,00;171,4524
593,00;276,1984
594,00;126,7553
595,00;242,1157
596,00;423,6231
597,00;807,3541
598,00;618,9314
599,00;635,0176
600,00;436,4460
601,00;395,7837
602,00;406,8973
603,00;757,2209
604,00;354,6708
605,00;397,7767
606,00;95,4324
607,00;-55,7962
608,00;31,3660
609,00;-64,6973
610,00;-6,4752
611,00;99,4156
612,00;5,4259
613,00;-28,5978
614,00;-21,5712
615,00;14,8153
616,00;165,2355
617,00;91,0390
618,00;231,1547
619,00;31,1438
620,00;-35,8977
621,00;141,0473
622,00;46,5089
623,00;34,2276
624,00;-201,9325
625,00;-118,1463
626,00;29,9301
627,00;158,2696
628,00;-6,8312
629,00;-8,3879
630,00;20,8333
631,00;45,2048
632,00;91,9375
633,00;67,4243
634,00;183,1463
635,00;403,1605
636,00;529,8861
637,00;225,5036
638,00;292,9473
639,00;223,9764
640,00;164,2637
641,00;320,5911
642,00;265,7688
643,00;128,4441
644,00;-55,8655
645,00;182,2727
646,00;80,4628
647,00;61,3519
648,00;-169,5521
649,00;129,4592
650,00;-54,9596
651,00;-61,1746
652,00;-10,9065
653,00;120,9719
654,00;55,1662
655,00;-133,4644
656,00;-89,6387
657,00;75,5337
658,00;94,2757
659,00;197,1041
660,00;162,9097
661,00;-4,1160
662,00;-2,4277
663,00;-15,6434
664,00;4,1131
665,00;-45,9911
666,00;89,4329
667,00;71,8223
668,00;259,3893
669,00;26,1474
670,00;361,8908
671,00;-35,1973
672,00;-53,5681
673,00;-22,9126
674,00;41,4364
675,00;375,0349
676,00;136,3063
677,00;255,7045
678,00;103,7666
679,00;153,8165
680,00;144,3939
681,00;137,8637
682,00;6,7354
683,00;183,4710
684,00;220,1328
685,00;122,0556
686,00;-5,2844
687,00;142,0122
688,00;-66,2834
689,00;-104,9481
690,00;-6,6707
691,00;-79,6698
692,00;136,0474
693,00;48,2757
694,00;88,0946
695,00;-18,3600
696,00;396,6340
697,00;308,0655
698,00;114,7618
699,00;35,3224
700,00;81,0622
701,00;38,7132
702,00;-63,2142
703,00;222,6105
704,00;-7,8477
705,00;62,0681
706,00;133,4691
707,00;560,6353
708,00;-20,7857
709,00;144,9242
710,00;311,5060
711,00;-93,7041
712,00;37,8826
713,00;-138,1322
714,00;43,3922
715,00;118,1190
716,00;1,9434
717,00;-38,7679
718,00;-12,5007
719,00;180,3449
720,00;54,7362
721,00;121,5650
722,00;-153,9971
723,00;-20,8717
724,00;-26,9973
725,00;3,9358
726,00;42,5142
727,00;214,9448
728,00;147,5968
729,00;-25,0956
730,00;-122,3353
731,00;45,1786
732,00;-111,4300
733,00;-76,2655
734,00;144,8685
735,00;67,3047
736,00;222,1643
737,00;331,3964
738,00;802,3298
739,00;460,4505
740,00;40,0630
741,00;283,1053
742,00;203,2685
743,00;121,0390
744,00;557,5225
745,00;121,6777
746,00;70,2262
747,00;54,3301
748,00;-45,9242
749,00;-1,5130
750,00;2996,4980
751,00;2663,2770
752,00;804,1318
753,00;91,5798
754,00;16,3520
755,00;24,2082
756,00;-1,6661
757,00;3,2596
758,00;-226,2796
759,00;-62,7732
760,00;257,9109
761,00;312,1441
762,00;8,2152
763,00;1457,2030
764,00;1039,5540
765,00;-50,9172
766,00;34,6825
767,00;-94,9020
768,00;-114,5478
769,00;-51,3520
770,00;-74,4852
771,00;-71,3266
772,00;428,2168
773,00;267,3825
774,00;-6,8539
775,00;-93,1346
776,00;155,4074
777,00;4141,6300
778,00;1860,6670
779,00;54,3338
780,00;33,2961
781,00;-84,1368
782,00;-78,7038
783,00;63,1744
784,00;107,8685
785,00;-138,9613
786,00;-108,4705
787,00;1,3593
788,00;-8,7000
789,00;-40,6944
790,00;-52,9582
791,00;-120,7268
792,00;-100,3146
793,00;-88,8724
794,00;240,4916
795,00;367,6415
796,00;30,2214
797,00;28,4353
798,00;-34,1434
799,00;-95,3177
800,00;262,2538
801,00;411,0105
802,00;206,2792
803,00;-69,5041
804,00;-179,8208
805,00;7,6753
806,00;-173,8117
807,00;86,9030
808,00;-80,5759
809,00;-43,4884
810,00;557,4933
811,00;1313,4210
812,00;1091,4620
813,00;-64,9424
814,00;1,1252
815,00;-88,9182
816,00;-102,0863
817,00;27,9499
818,00;-73,0014
819,00;-24,0838
820,00;-65,5144
821,00;30,9504
822,00;-35,7525
823,00;-184,4983
824,00;-90,5571
825,00;-108,8777
826,00;190,3812
827,00;12,9839
828,00;-79,0366
829,00;-73,7831
830,00;-151,0254
831,00;35,8711
832,00;-221,4683
833,00;-59,8189
834,00;-139,9457
835,00;-125,6647
836,00;-6,7334
837,00;62,6528
838,00;-13,2662
839,00;74,5884
840,00;163,7696
841,00;380,6164
842,00;499,4221
843,00;403,7640
844,00;374,2118
845,00;758,0179
846,00;-12,4577
847,00;-68,8454
848,00;19,5901
849,00;-164,9806
850,00;-167,8592
851,00;-94,2691
852,00;98,4943
853,00;-182,4614
854,00;-29,0204
855,00;-59,6749
856,00;83,7555
857,00;13,6000
858,00;-112,0727
859,00;25,4741
860,00;58,6107
861,00;-64,2881
862,00;-96,3894
863,00;-15,9420
864,00;-125,9247
865,00;-64,2848
866,00;-8,6249
867,00;-73,5150
868,00;-23,6224
869,00;48,6400
870,00;14,8773
871,00;-101,4286
872,00;-105,2655
873,00;-38,3929
874,00;-33,1851
875,00;58,4682
876,00;-92,8130
877,00;249,0739
878,00;-77,8737
879,00;-41,6266
880,00;76,6080
881,00;-27,0598
882,00;-39,1719
883,00;-13,9252
884,00;170,1523
885,00;-105,9694
886,00;-107,9283
887,00;-56,1812
888,00;-38,8491
889,00;-61,8983
890,00;-34,6199
891,00;72,8543
892,00;-91,4333
893,00;91,0538
894,00;-168,2338
895,00;-70,8216
896,00;-151,1976
897,00;-70,2038
898,00;-16,8827
899,00;-55,5008
900,00;-192,3956
901,00;109,8030
902,00;51,2205
903,00;-19,3469
904,00;-32,9868
905,00;11,6423
906,00;-225,7883
907,00;-152,1056
908,00;-145,7198
909,00;-125,3335
910,00;-214,2051
911,00;-45,9364
912,00;479,1840
913,00;273,4504
914,00;38,3606
915,00;-2,2847
916,00;-52,9480
917,00;-45,8442
918,00;-98,1214
919,00;5,4094
920,00;-99,4457
921,00;-84,2928
922,00;-6,1093
923,00;-2,5434
924,00;-59,4506
925,00;34,0613
926,00;155,1754
927,00;175,2784
928,00;-39,5652
929,00;-56,6356
930,00;-141,5563
931,00;-112,8103
932,00;-89,2124
933,00;-107,1311
934,00;-13,4887
935,00;-16,3436
936,00;143,8949
937,00;73,3184
938,00;79,8946
939,00;-16,1064
940,00;-72,9606
941,00;-148,8843
942,00;-166,2841
943,00;-139,9956
944,00;-167,2212
945,00;7,9766
946,00;-95,5217
947,00;98,5150
948,00;-9,1806
949,00;-100,3058
950,00;-109,9985
951,00;148,6078
952,00;-164,3617
953,00;-113,6973
954,00;-135,8235
955,00;-31,2320
956,00;-170,7862
957,00;-94,5350
958,00;-133,5391
959,00;26,6513
960,00;-117,3196
961,00;-99,4994
962,00;-45,7188
963,00;170,0976
964,00;-36,4361
965,00;-77,4150
966,00;118,3272
967,00;195,4236
968,00;-7,2813
969,00;-97,8107
970,00;-148,4794
971,00;-58,9405
972,00;5,9587
973,00;-10,4257
974,00;-173,4800
975,00;146,2310
976,00;19,0980
977,00;-180,5629
978,00;-105,8531
979,00;0,7760
980,00;-170,3192
981,00;-57,6658
982,00;-156,9474
983,00;-75,7579
984,00;-203,4187
985,00;-39,9324
986,00;31,3499
987,00;115,7354
988,00;80,3173
989,00;-56,3569
990,00;107,0571
991,00;-125,2186
992,00;-35,6370
993,00;-17,9433
994,00;-208,8159
995,00;-34,1069
996,00;-133,5221
997,00;-44,2638
998,00;-58,6750
999,00;-163,2080
1000,00;149,6109
1001,00;84,5528
1002,00;-66,3543
1003,00;-8,1384
1004,00;-36,1356
1005,00;-81,3063
1006,00;-119,5281
1007,00;-58,7490
1008,00;48,5705
1009,00;-50,0852
1010,00;-18,1317
1011,00;63,5313
1012,00;18,8038
1013,00;-143,6211
1014,00;182,5468
1015,00;175,2646
1016,00;-110,3287
1017,00;-136,7118
1018,00;-40,2794
1019,00;-162,8791
1020,00;-89,8633
1021,00;-62,5182
1022,00;-202,6500
1023,00;-21,7660
1024,00;-69,6530
1025,00;48,0775
1026,00;109,9166
1027,00;-25,9032
1028,00;-3,0296
1029,00;4,2498
1030,00;-55,5728
1031,00;-108,4869
1032,00;-31,1708
1033,00;27,6087
1034,00;-163,5736
1035,00;-187,0485
1036,00;96,3033
1037,00;-113,0480
1038,00;-120,9378
1039,00;9,2598
1040,00;-107,0988
1041,00;24,3383
1042,00;-32,6436
1043,00;109,4452
1044,00;352,8603
1045,00;-35,8106
1046,00;-106,8915
1047,00;59,8452
1048,00;-13,1019
1049,00;-82,8790
1050,00;-84,1818
1051,00;-90,6442
1052,00;-39,2914
1053,00;-204,4621
1054,00;-29,6495
1055,00;-148,3296
1056,00;-120,8499
1057,00;-103,0691
1058,00;98,8423
1059,00;21,7060
1060,00;-40,9399
1061,00;-112,5081
1062,00;-57,4267
1063,00;-125,6242
1064,00;-5,9550
1065,00;-63,3650
1066,00;-24,6798
1067,00;-22,5468
1068,00;-169,7993
1069,00;-96,6109
1070,00;-80,9431
1071,00;-111,0924
1072,00;41,1726
1073,00;17,7047
1074,00;-44,9142
1075,00;-16,9579
1076,00;-79,0191
1077,00;-92,6071
1078,00;-64,3733
1079,00;-20,9875
1080,00;-153,2460
1081,00;-54,4214
1082,00;-86,1741
1083,00;-183,9269
1084,00;-19,6005
1085,00;-48,1215
1086,00;25,7516
1087,00;-75,9333
1088,00;-11,8096
1089,00;116,5620
1090,00;-125,4010
1091,00;109,7843
1092,00;-61,9981
1093,00;93,9399
1094,00;33,8589
1095,00;33,4253
1096,00;-134,5750
1097,00;-78,2984
1098,00;-100,0775
1099,00;-102,1615
1100,00;-91,9927
