M- 9.1Pa 35W 50-50
Integration time: 1000 ms
Average: 20 scans
Nr of pixels used for smoothing: 0
Data measured with spectrometer serial number: 0501039S2
Wave   ;Sample
[nm]   ;[counts]
200,00;-143,9660
201,00;-9,4361
202,00;-80,6876
203,00;-159,2989
204,00;-18,5931
205,00;-99,8320
206,00;-142,2357
207,00;-68,7526
208,00;-26,3204
209,00;88,3968
210,00;-136,2406
211,00;-27,2688
212,00;-101,6650
213,00;-26,9599
214,00;-57,0549
215,00;-53,5005
216,00;-68,6384
217,00;-92,0116
218,00;-109,5589
219,00;-87,1804
220,00;319,0202
221,00;14,2530
222,00;43,7536
223,00;-139,2230
224,00;-141,3815
225,00;71,6929
226,00;-41,4272
227,00;-66,1598
228,00;109,1136
229,00;-105,5696
230,00;13,1966
231,00;-61,3955
232,00;29,4164
233,00;38,6163
234,00;-69,2754
235,00;-25,2819
236,00;-86,1471
237,00;-45,0248
238,00;17,6729
239,00;-3,7937
240,00;-152,2887
241,00;-140,4953
242,00;-64,0649
243,00;-127,0740
244,00;121,3734
245,00;27,0723
246,00;-110,1704
247,00;-149,0334
248,00;9,9607
249,00;28,1583
250,00;-32,1099
251,00;115,9867
252,00;-116,3109
253,00;27,2880
254,00;-212,2397
255,00;-138,5574
256,00;-103,9157
257,00;41,1640
258,00;-52,2755
259,00;0,3198
260,00;-101,9920
261,00;-0,3712
262,00;48,7820
263,00;-127,3746
264,00;44,6672
265,00;35,5121
266,00;-9,4470
267,00;165,0460
268,00;-69,5820
269,00;103,1875
270,00;-82,6212
271,00;4,3130
272,00;-13,1855
273,00;-33,9580
274,00;-12,4931
275,00;55,4036
276,00;-26,9224
277,00;-93,6709
278,00;-69,1821
279,00;-78,4053
280,00;-69,8593
281,00;-11,0055
282,00;-14,9078
283,00;-3,2599
284,00;-92,6068
285,00;-163,0428
286,00;-33,9983
287,00;-54,8317
288,00;-81,1847
289,00;-82,3659
290,00;-60,9150
291,00;-97,9381
292,00;-96,4771
293,00;-15,9920
294,00;-14,7468
295,00;4,2381
296,00;-101,7988
297,00;-103,5147
298,00;-115,3497
299,00;-99,1800
300,00;-65,1806
301,00;31,5527
302,00;-92,2470
303,00;-78,5776
304,00;-73,7947
305,00;-90,9130
306,00;-44,0527
307,00;48,0969
308,00;5,1053
309,00;-65,8932
310,00;-120,7587
311,00;-12,7884
312,00;-38,5946
313,00;-10,4426
314,00;-39,7062
315,00;-92,7713
316,00;34,0390
317,00;-151,4727
318,00;-91,6763
319,00;10,4167
320,00;-100,2505
321,00;-27,8983
322,00;-96,2876
323,00;-150,0870
324,00;-21,6687
325,00;71,2430
326,00;-39,3079
327,00;-124,6382
328,00;-68,1170
329,00;-5,3224
330,00;-64,4456
331,00;-87,9121
332,00;5,5149
333,00;-54,2022
334,00;-27,5905
335,00;-121,7273
336,00;-81,2131
337,00;63,1391
338,00;-19,9558
339,00;-25,7634
340,00;-35,9509
341,00;-102,1443
342,00;-63,4478
343,00;-0,9001
344,00;-19,6105
345,00;-91,4483
346,00;156,9147
347,00;-92,1995
348,00;-66,1401
349,00;-133,6020
350,00;-65,3088
351,00;-4,1697
352,00;-14,1719
353,00;-85,7271
354,00;69,9352
355,00;-156,3441
356,00;-19,5622
357,00;-55,7603
358,00;70,2947
359,00;18,4986
360,00;-64,5978
361,00;-125,4092
362,00;-138,3438
363,00;-118,1493
364,00;-122,2191
365,00;-21,2988
366,00;-25,8284
367,00;111,8969
368,00;-102,8992
369,00;8,1725
370,00;-14,6966
371,00;-27,2510
372,00;-132,2122
373,00;-66,3379
374,00;-96,9298
375,00;37,3247
376,00;-45,9603
377,00;44,1247
378,00;-103,1512
379,00;54,8241
380,00;88,9571
381,00;-79,8298
382,00;13,1721
383,00;-19,6782
384,00;29,0433
385,00;-26,3907
386,00;92,7908
387,00;-55,5695
388,00;-45,1391
389,00;-40,6731
390,00;64,6315
391,00;166,0736
392,00;84,8350
393,00;-76,5614
394,00;27,7062
395,00;188,5197
396,00;93,5934
397,00;-55,9768
398,00;-23,0623
399,00;34,9381
400,00;-49,5280
401,00;-47,2234
402,00;-115,4028
403,00;-71,9364
404,00;247,8147
405,00;252,9608
406,00;142,6660
407,00;12,7575
408,00;-8,7326
409,00;85,3214
410,00;-44,6844
411,00;55,7911
412,00;95,9040
413,00;54,2326
414,00;-21,1064
415,00;241,2255
416,00;786,7334
417,00;70,5962
418,00;368,5877
419,00;1177,5110
420,00;1824,9970
421,00;-40,2080
422,00;37,3308
423,00;69,4761
424,00;112,3137
425,00;548,5994
426,00;1527,1210
427,00;781,7996
428,00;214,3914
429,00;128,9456
430,00;430,1030
431,00;195,7650
432,00;16,6250
433,00;532,2015
434,00;289,0313
435,00;80,5709
436,00;133,5756
437,00;314,3906
438,00;114,2878
439,00;143,8829
440,00;30,9993
441,00;-6,4920
442,00;22,8231
443,00;160,5032
444,00;49,9385
445,00;136,0170
446,00;-14,7655
447,00;-39,5075
448,00;-72,0314
449,00;-13,9582
450,00;96,3653
451,00;624,8752
452,00;47,6044
453,00;9,8855
454,00;19,4603
455,00;-16,1163
456,00;-46,9018
457,00;46,6133
458,00;62,0085
459,00;63,6809
460,00;-21,9862
461,00;68,2474
462,00;-63,6836
463,00;96,4577
464,00;53,8099
465,00;278,0926
466,00;117,0196
467,00;35,8192
468,00;-59,9561
469,00;42,9895
470,00;20,8524
471,00;23,3426
472,00;14,3057
473,00;114,7468
474,00;-41,9569
475,00;149,5292
476,00;144,6771
477,00;117,0272
478,00;43,8149
479,00;61,9020
480,00;129,9900
481,00;99,5622
482,00;-30,4361
483,00;47,8576
484,00;48,6735
485,00;-54,2764
486,00;-10,8884
487,00;103,7508
488,00;221,6633
489,00;174,0110
490,00;-89,3917
491,00;172,3786
492,00;59,9300
493,00;-58,3631
494,00;110,5525
495,00;121,1623
496,00;115,4723
497,00;146,2153
498,00;229,5223
499,00;126,4626
500,00;2,0854
501,00;65,0625
502,00;-4,5221
503,00;-6,8408
504,00;32,3715
505,00;155,0942
506,00;89,8684
507,00;36,5837
508,00;16,6210
509,00;98,4034
510,00;24,4801
511,00;-75,1222
512,00;90,8479
513,00;-3,5446
514,00;66,3084
515,00;90,7842
516,00;455,9955
517,00;40,3416
518,00;149,9727
519,00;306,2802
520,00;-24,3809
521,00;230,6092
522,00;554,6344
523,00;554,8712
524,00;582,7016
525,00;1028,6610
526,00;851,1891
527,00;632,6517
528,00;602,4257
529,00;371,3629
530,00;280,9282
531,00;96,1274
532,00;11,1361
533,00;172,6572
534,00;-15,2539
535,00;29,7936
536,00;46,0507
537,00;93,7573
538,00;89,5130
539,00;-2,9414
540,00;-115,6446
541,00;-39,6134
542,00;186,3006
543,00;122,8611
544,00;348,9257
545,00;310,5035
546,00;98,3960
547,00;-14,0293
548,00;125,8926
549,00;401,0898
550,00;533,4054
551,00;127,9964
552,00;151,4463
553,00;401,2206
554,00;238,6569
555,00;610,2824
556,00;1088,2860
557,00;1198,3280
558,00;1860,9350
559,00;1954,8680
560,00;2120,5920
561,00;1793,5340
562,00;1386,0710
563,00;746,0342
564,00;283,2761
565,00;294,5898
566,00;69,3362
567,00;110,8324
568,00;274,6749
569,00;117,4719
570,00;86,4214
571,00;161,2155
572,00;90,8925
573,00;69,3091
574,00;359,8162
575,00;103,5381
576,00;-38,3389
577,00;92,0440
578,00;-1,0797
579,00;63,1605
580,00;179,5959
581,00;195,3059
582,00;147,5201
583,00;220,1561
584,00;219,9320
585,00;173,8240
586,00;502,2989
587,00;357,5109
588,00;466,8716
589,00;528,8226
590,00;313,0194
591,00;758,0190
592,00;346,5322
593,00;434,8779
594,00;223,2957
595,00;342,9532
596,00;560,7503
597,00;1050,3740
598,00;848,7848
599,00;864,8872
600,00;697,3153
601,00;604,9911
602,00;589,3750
603,00;1379,4120
604,00;658,5933
605,00;467,2918
606,00;201,0128
607,00;-13,2777
608,00;52,4272
609,00;11,8225
610,00;176,2927
611,00;178,3302
612,00;31,9828
613,00;5,7657
614,00;31,0211
615,00;113,7086
616,00;300,4928
617,00;221,7186
618,00;326,8230
619,00;68,1027
620,00;-17,0313
621,00;230,4457
622,00;120,5199
623,00;34,6234
624,00;-140,2912
625,00;-65,4333
626,00;35,9688
627,00;131,0392
628,00;17,3489
629,00;76,5673
630,00;146,7099
631,00;143,8255
632,00;125,0982
633,00;114,6949
634,00;251,3324
635,00;512,1089
636,00;668,9080
637,00;411,6361
638,00;474,0241
639,00;387,5208
640,00;292,9230
641,00;484,0449
642,00;374,5213
643,00;118,3028
644,00;-28,1211
645,00;186,7608
646,00;118,6291
647,00;101,5053
648,00;-125,2463
649,00;118,5590
650,00;-30,6983
651,00;-36,5897
652,00;-1,0234
653,00;118,2868
654,00;84,8261
655,00;-88,3264
656,00;-66,0714
657,00;75,0625
658,00;86,8707
659,00;160,0591
660,00;181,6414
661,00;28,5886
662,00;11,9283
663,00;-8,7540
664,00;11,6028
665,00;-18,3930
666,00;128,6778
667,00;104,2513
668,00;282,1062
669,00;74,2459
670,00;355,3651
671,00;34,4169
672,00;32,3149
673,00;32,2320
674,00;98,7356
675,00;759,8792
676,00;271,4363
677,00;310,8783
678,00;179,5879
679,00;223,3602
680,00;194,5372
681,00;189,4157
682,00;92,9535
683,00;218,5660
684,00;207,5500
685,00;150,1037
686,00;50,5126
687,00;448,3375
688,00;31,5649
689,00;-27,8593
690,00;7,1398
691,00;-64,8120
692,00;104,7133
693,00;90,1556
694,00;174,9810
695,00;40,2279
696,00;900,8440
697,00;610,6400
698,00;114,7258
699,00;49,7414
700,00;73,2022
701,00;33,2119
702,00;-19,0235
703,00;379,3902
704,00;18,9452
705,00;70,4124
706,00;545,7082
707,00;1093,0790
708,00;35,8902
709,00;116,4682
710,00;267,9278
711,00;-40,7309
712,00;59,4175
713,00;-64,0567
714,00;87,0800
715,00;169,7184
716,00;65,5312
717,00;-12,1934
718,00;13,6109
719,00;154,6887
720,00;136,6641
721,00;201,6634
722,00;-97,3545
723,00;11,9520
724,00;-0,6264
725,00;22,0364
726,00;97,6493
727,00;387,3128
728,00;185,4479
729,00;17,8915
730,00;-77,6996
731,00;152,5087
732,00;-35,6641
733,00;-35,2601
734,00;123,7913
735,00;178,8160
736,00;207,6014
737,00;583,8266
738,00;1523,3890
739,00;732,2545
740,00;61,6114
741,00;249,5361
742,00;197,6450
743,00;146,9045
744,00;468,8949
745,00;109,3420
746,00;70,2508
747,00;57,0913
748,00;7,8161
749,00;84,5514
750,00;5657,0140
751,00;4548,9990
752,00;1358,3990
753,00;117,6536
754,00;39,7455
755,00;43,6720
756,00;23,3717
757,00;17,2202
758,00;-152,7713
759,00;-32,3342
760,00;196,2751
761,00;243,9753
762,00;43,4874
763,00;2792,6240
764,00;1676,1310
765,00;1,3004
766,00;49,1604
767,00;-51,7877
768,00;-80,2789
769,00;-24,8913
770,00;-40,7156
771,00;-31,7022
772,00;988,3029
773,00;452,9972
774,00;14,3267
775,00;-62,6216
776,00;180,0969
777,00;4385,2560
778,00;1607,4490
779,00;52,0246
780,00;28,7966
781,00;-64,8367
782,00;-55,4881
783,00;49,1641
784,00;92,0979
785,00;-102,7502
786,00;-64,3345
787,00;8,9131
788,00;-3,5444
789,00;-4,5739
790,00;-34,5689
791,00;-87,3387
792,00;-77,4988
793,00;-68,2116
794,00;361,5753
795,00;790,8594
796,00;56,8690
797,00;24,6185
798,00;-31,4658
799,00;-76,0209
800,00;347,1123
801,00;901,3365
802,00;419,7458
803,00;-39,1750
804,00;-125,7331
805,00;27,1282
806,00;-125,1438
807,00;73,5237
808,00;-50,9748
809,00;-6,7078
810,00;1172,4760
811,00;2711,2650
812,00;1852,3700
813,00;-0,0463
814,00;19,3324
815,00;-63,8089
816,00;-74,0548
817,00;27,7848
818,00;-48,5354
819,00;-17,9492
820,00;-56,3593
821,00;20,2274
822,00;-25,5392
823,00;-141,4812
824,00;-71,0040
825,00;-79,0425
826,00;358,8492
827,00;116,4944
828,00;-62,1937
829,00;-54,5775
830,00;-128,9501
831,00;32,1648
832,00;-175,3806
833,00;-47,6328
834,00;-111,5634
835,00;-96,6432
836,00;-5,3103
837,00;47,2874
838,00;-10,7043
839,00;74,2015
840,00;323,9685
841,00;719,7785
842,00;1044,3380
843,00;669,2475
844,00;502,4810
845,00;672,4537
846,00;-6,4555
847,00;-57,7376
848,00;11,1579
849,00;-122,8116
850,00;-130,0297
851,00;-33,0845
852,00;283,0317
853,00;-115,0019
854,00;-22,9999
855,00;-41,8204
856,00;70,3541
857,00;6,8308
858,00;-85,2557
859,00;15,8037
860,00;52,0558
861,00;-50,0993
862,00;-71,5509
863,00;-20,5856
864,00;-96,3129
865,00;-53,0491
866,00;10,7484
867,00;-22,8618
868,00;-15,6742
869,00;35,4324
870,00;-0,1427
871,00;-86,5621
872,00;-83,4921
873,00;-31,9616
874,00;-31,3849
875,00;37,3615
876,00;-59,4192
877,00;190,9733
878,00;-65,6453
879,00;-40,3793
880,00;51,5176
881,00;-32,3100
882,00;-26,1547
883,00;-15,8150
884,00;116,7566
885,00;-83,7361
886,00;-80,9705
887,00;-48,1082
888,00;-35,4915
889,00;-50,8759
890,00;-42,6745
891,00;58,2713
892,00;-77,1187
893,00;58,2058
894,00;-143,4505
895,00;-55,7529
896,00;-116,8889
897,00;-47,5622
898,00;-13,0328
899,00;-49,7207
900,00;-158,1317
901,00;70,8149
902,00;36,3838
903,00;-31,1590
904,00;-28,7610
905,00;-3,1425
906,00;-180,0343
907,00;-116,2069
908,00;-109,2725
909,00;-99,5763
910,00;-168,9316
911,00;-15,5448
912,00;956,3351
913,00;357,1899
914,00;23,3408
915,00;-7,4780
916,00;-44,3550
917,00;-39,2897
918,00;-81,4712
919,00;9,6356
920,00;-63,4486
921,00;-66,5327
922,00;67,9007
923,00;30,8798
924,00;-50,1823
925,00;15,6607
926,00;152,9492
927,00;142,8453
928,00;-34,2630
929,00;-39,6522
930,00;-110,9354
931,00;-89,8145
932,00;-80,6297
933,00;-87,6235
934,00;-20,1016
935,00;-12,7304
936,00;116,1681
937,00;49,7379
938,00;52,2168
939,00;-12,3573
940,00;-63,5904
941,00;-118,6754
942,00;-131,6285
943,00;-114,9840
944,00;-138,7727
945,00;4,5451
946,00;-77,7891
947,00;65,0303
948,00;-12,2668
949,00;-80,1162
950,00;-82,1736
951,00;107,7126
952,00;-133,8141
953,00;-95,5650
954,00;-112,7186
955,00;-27,5574
956,00;-133,9036
957,00;-77,9319
958,00;-110,5602
959,00;19,9629
960,00;-99,5918
961,00;-92,6456
962,00;-46,9493
963,00;124,3266
964,00;-35,5581
965,00;-23,0559
966,00;160,7186
967,00;161,4975
968,00;-6,7890
969,00;-86,3353
970,00;-119,6460
971,00;-52,5452
972,00;0,2111
973,00;-14,3276
974,00;-151,4577
975,00;108,8642
976,00;7,6517
977,00;-151,7713
978,00;-77,1921
979,00;1,0056
980,00;-134,4264
981,00;-45,5671
982,00;-139,0740
983,00;-68,5604
984,00;-163,1798
985,00;-34,8613
986,00;13,0356
987,00;78,9557
988,00;57,3888
989,00;-48,2237
990,00;75,0572
991,00;-104,9646
992,00;-33,6727
993,00;-14,8792
994,00;-163,0145
995,00;-25,4046
996,00;-112,7712
997,00;-43,1511
998,00;-46,0654
999,00;-136,0000
1000,00;105,5825
1001,00;69,6874
1002,00;-55,2937
1003,00;-11,7295
1004,00;-37,2413
1005,00;-70,8713
1006,00;-93,2119
1007,00;-45,0180
1008,00;32,5842
1009,00;-52,8855
1010,00;-19,2914
1011,00;48,1875
1012,00;2,7102
1013,00;-114,6922
1014,00;125,3179
1015,00;121,6096
1016,00;-97,2009
1017,00;-105,4784
1018,00;-43,2304
1019,00;-133,3344
1020,00;-71,0162
1021,00;-45,4808
1022,00;-166,7690
1023,00;-20,1315
1024,00;-57,5742
1025,00;27,4204
1026,00;74,7809
1027,00;-31,4922
1028,00;-14,1828
1029,00;0,2058
1030,00;-48,6587
1031,00;-96,4030
1032,00;-30,2164
1033,00;18,8338
1034,00;-125,8209
1035,00;-148,9813
1036,00;72,2264
1037,00;-89,6183
1038,00;-98,7744
1039,00;-0,9229
1040,00;-90,5173
1041,00;8,7644
1042,00;-28,5902
1043,00;73,0435
1044,00;257,6691
1045,00;-35,8948
1046,00;-74,8699
1047,00;42,6514
1048,00;-12,1838
1049,00;-65,9291
1050,00;-69,8512
1051,00;-69,8609
1052,00;-30,3127
1053,00;-169,4598
1054,00;-27,2425
1055,00;-114,3823
1056,00;-107,8144
1057,00;-92,6501
1058,00;68,4052
1059,00;13,8825
1060,00;-42,4990
1061,00;-95,1264
1062,00;-49,6306
1063,00;-106,8941
1064,00;-7,9796
1065,00;-54,7853
1066,00;-20,7664
1067,00;-17,6905
1068,00;-123,1844
1069,00;-81,5738
1070,00;-67,0827
1071,00;-89,9901
1072,00;22,5640
1073,00;9,1658
1074,00;-42,7872
1075,00;-12,5329
1076,00;-68,6886
1077,00;-81,5181
1078,00;-57,4865
1079,00;-26,1795
1080,00;-120,1563
1081,00;-48,9804
1082,00;-70,6422
1083,00;-150,3663
1084,00;-12,2578
1085,00;-33,1670
1086,00;18,1883
1087,00;-63,4211
1088,00;-13,1030
1089,00;90,8050
1090,00;-99,4240
1091,00;83,5177
1092,00;-46,2109
1093,00;69,9059
1094,00;21,3801
1095,00;23,4823
1096,00;-111,6604
1097,00;-63,8944
1098,00;-79,6771
1099,00;-80,9324
1100,00;-75,6134
