M- 9.3Pa 25W 50-50
Integration time: 1000 ms
Average: 5 scans
Nr of pixels used for smoothing: 0
Data measured with spectrometer serial number: 0501039S2
Wave   ;Sample
[nm]   ;[counts]
200,00;-152,9574
201,00;3,8450
202,00;-69,4242
203,00;-168,3785
204,00;-20,2777
205,00;-103,2700
206,00;-161,6705
207,00;-63,9881
208,00;-26,1966
209,00;93,6927
210,00;-142,7087
211,00;-4,9334
212,00;-106,2786
213,00;-29,1513
214,00;-60,0855
215,00;-45,3258
216,00;-67,5451
217,00;-104,7506
218,00;-119,7287
219,00;-90,3561
220,00;335,2865
221,00;33,3690
222,00;43,7783
223,00;-158,1048
224,00;-159,8637
225,00;84,8859
226,00;-25,0999
227,00;-60,9713
228,00;103,3985
229,00;-108,6526
230,00;11,4110
231,00;-57,9366
232,00;37,3910
233,00;47,7101
234,00;-81,0834
235,00;-34,3323
236,00;-91,8088
237,00;-54,2532
238,00;19,2585
239,00;5,8863
240,00;-153,1219
241,00;-140,8836
242,00;-66,6963
243,00;-146,7456
244,00;147,4299
245,00;45,4704
246,00;-113,9539
247,00;-158,1218
248,00;-6,7146
249,00;31,7316
250,00;-22,9281
251,00;132,4588
252,00;-114,5269
253,00;10,6775
254,00;-218,9966
255,00;-143,6364
256,00;-113,6052
257,00;44,8177
258,00;-67,7771
259,00;14,7658
260,00;-103,3659
261,00;-13,0244
262,00;54,1763
263,00;-131,5536
264,00;50,9160
265,00;40,6561
266,00;-19,4955
267,00;166,1245
268,00;-63,6445
269,00;121,4610
270,00;-69,9386
271,00;2,1525
272,00;-4,1435
273,00;-38,2946
274,00;-46,8028
275,00;71,5988
276,00;-18,8168
277,00;-108,4341
278,00;-70,5448
279,00;-78,7296
280,00;-74,1458
281,00;-7,1219
282,00;-1,9309
283,00;-2,4110
284,00;-87,4834
285,00;-182,5095
286,00;-38,0776
287,00;-59,8650
288,00;-63,4350
289,00;-80,6788
290,00;-61,0602
291,00;-110,4391
292,00;-103,7884
293,00;-11,9913
294,00;-14,7925
295,00;4,6432
296,00;-114,1223
297,00;-116,5759
298,00;-100,5030
299,00;-97,0813
300,00;-59,7635
301,00;37,9485
302,00;-87,3150
303,00;-76,9315
304,00;-78,4742
305,00;-98,2552
306,00;-48,6614
307,00;58,5494
308,00;34,9590
309,00;-58,2745
310,00;-136,5197
311,00;-10,4077
312,00;-47,1139
313,00;-0,6811
314,00;-36,2513
315,00;-114,0635
316,00;16,4216
317,00;-160,5069
318,00;-86,4681
319,00;7,5209
320,00;-96,5940
321,00;-19,8386
322,00;-98,8811
323,00;-156,8862
324,00;-32,1084
325,00;85,0466
326,00;-34,3122
327,00;-120,8564
328,00;-70,1819
329,00;-14,4334
330,00;-77,8436
331,00;-86,1944
332,00;0,5714
333,00;-44,5805
334,00;-37,7305
335,00;-126,3923
336,00;-81,7232
337,00;79,8879
338,00;-20,4052
339,00;-17,0520
340,00;-27,8505
341,00;-90,1296
342,00;-57,6191
343,00;-4,6461
344,00;-26,7318
345,00;-93,6309
346,00;179,6150
347,00;-79,2720
348,00;-90,0139
349,00;-142,5058
350,00;-63,8724
351,00;17,9765
352,00;-4,8280
353,00;-90,1762
354,00;66,1659
355,00;-160,0750
356,00;-15,1079
357,00;-39,5158
358,00;80,0132
359,00;20,2914
360,00;-60,3424
361,00;-118,2060
362,00;-142,9876
363,00;-130,0566
364,00;-123,9368
365,00;-4,9198
366,00;-18,7249
367,00;127,0749
368,00;-102,4875
369,00;24,8115
370,00;2,9746
371,00;-23,8582
372,00;-142,6283
373,00;-80,7370
374,00;-121,8962
375,00;47,7088
376,00;-39,2173
377,00;46,2559
378,00;-115,0087
379,00;56,3234
380,00;115,9637
381,00;-95,9408
382,00;18,5230
383,00;-42,7041
384,00;34,6217
385,00;-22,2725
386,00;89,9067
387,00;-66,6294
388,00;-60,9029
389,00;-41,7696
390,00;57,4377
391,00;158,7566
392,00;65,7866
393,00;-101,4356
394,00;-12,3655
395,00;162,1961
396,00;83,0724
397,00;-82,4735
398,00;-4,5298
399,00;34,9352
400,00;-63,9362
401,00;-55,7831
402,00;-135,7185
403,00;-79,3557
404,00;217,2044
405,00;249,8530
406,00;133,1140
407,00;-29,3395
408,00;-31,8179
409,00;76,1168
410,00;-48,8276
411,00;44,7906
412,00;104,8226
413,00;28,7754
414,00;-38,9052
415,00;193,6446
416,00;732,5807
417,00;68,2908
418,00;345,4142
419,00;1047,9090
420,00;1674,8530
421,00;-74,4043
422,00;24,5126
423,00;66,9945
424,00;120,8678
425,00;502,6317
426,00;1408,6090
427,00;725,7291
428,00;173,4251
429,00;124,0626
430,00;388,1904
431,00;194,2330
432,00;9,9055
433,00;480,8387
434,00;250,2834
435,00;18,3331
436,00;96,1393
437,00;283,5483
438,00;111,7713
439,00;135,3867
440,00;16,0425
441,00;-21,6346
442,00;-5,4271
443,00;157,4106
444,00;54,8922
445,00;153,7653
446,00;6,4007
447,00;-40,1329
448,00;-91,6063
449,00;-14,2563
450,00;106,1327
451,00;596,7668
452,00;62,1948
453,00;18,2019
454,00;-1,6389
455,00;-21,0130
456,00;-32,4369
457,00;74,3719
458,00;58,6016
459,00;31,8231
460,00;-39,5687
461,00;31,9794
462,00;-65,9370
463,00;98,1008
464,00;44,6919
465,00;272,8945
466,00;111,0097
467,00;38,2138
468,00;-64,5148
469,00;33,9437
470,00;1,0425
471,00;40,5141
472,00;22,0484
473,00;96,8792
474,00;-57,1093
475,00;149,0423
476,00;107,7777
477,00;86,5494
478,00;42,8137
479,00;77,6937
480,00;115,1779
481,00;99,1300
482,00;-41,7498
483,00;37,0413
484,00;48,6545
485,00;-35,0816
486,00;-10,7439
487,00;93,1113
488,00;188,0875
489,00;163,8691
490,00;-87,9697
491,00;179,2320
492,00;63,2823
493,00;-46,2294
494,00;137,1745
495,00;136,9023
496,00;94,2406
497,00;115,4066
498,00;220,3074
499,00;139,9161
500,00;3,8958
501,00;73,4325
502,00;4,8735
503,00;11,8055
504,00;38,5346
505,00;156,9078
506,00;70,5118
507,00;29,6885
508,00;19,1590
509,00;103,6618
510,00;21,1649
511,00;-81,2920
512,00;90,9908
513,00;4,2522
514,00;83,5548
515,00;81,2706
516,00;446,9995
517,00;52,4866
518,00;132,5594
519,00;284,2259
520,00;-35,4322
521,00;211,3391
522,00;493,5383
523,00;468,4695
524,00;447,5694
525,00;850,8076
526,00;700,7374
527,00;509,6863
528,00;508,7766
529,00;327,1014
530,00;276,9414
531,00;102,8421
532,00;15,3025
533,00;151,2623
534,00;-32,0597
535,00;41,7699
536,00;52,9465
537,00;112,0126
538,00;99,1059
539,00;-4,2667
540,00;-112,1271
541,00;-28,3711
542,00;194,4024
543,00;133,8654
544,00;365,9347
545,00;305,8975
546,00;99,6651
547,00;-22,2550
548,00;140,7393
549,00;342,3900
550,00;521,8317
551,00;141,2543
552,00;153,9114
553,00;396,6794
554,00;191,4444
555,00;503,2020
556,00;937,6395
557,00;992,3251
558,00;1502,9170
559,00;1559,5400
560,00;1789,2030
561,00;1491,1750
562,00;1133,3110
563,00;607,1678
564,00;235,3232
565,00;283,5801
566,00;93,6842
567,00;131,1663
568,00;268,4307
569,00;94,8443
570,00;95,6445
571,00;171,7235
572,00;125,3165
573,00;83,9847
574,00;344,7443
575,00;118,7826
576,00;-17,7583
577,00;76,4004
578,00;-21,8197
579,00;65,5703
580,00;197,0827
581,00;216,5520
582,00;132,6187
583,00;187,6975
584,00;194,1970
585,00;153,8117
586,00;472,7755
587,00;302,5031
588,00;406,0269
589,00;490,6602
590,00;286,9312
591,00;683,1997
592,00;286,1652
593,00;390,6640
594,00;194,9928
595,00;309,9156
596,00;475,8939
597,00;897,2049
598,00;704,3923
599,00;744,3354
600,00;567,5337
601,00;478,4853
602,00;504,7518
603,00;1253,2530
604,00;614,6189
605,00;488,1739
606,00;193,3117
607,00;-23,2524
608,00;49,7146
609,00;18,3468
610,00;146,5116
611,00;173,2573
612,00;43,1794
613,00;6,5138
614,00;35,9667
615,00;77,0015
616,00;227,0724
617,00;171,6550
618,00;317,2605
619,00;71,0450
620,00;-10,9202
621,00;216,9382
622,00;109,8216
623,00;48,3496
624,00;-156,5673
625,00;-74,9209
626,00;44,8478
627,00;149,9715
628,00;16,8335
629,00;55,1938
630,00;119,5334
631,00;131,1488
632,00;121,5160
633,00;88,8707
634,00;199,1704
635,00;430,1065
636,00;580,0881
637,00;337,0619
638,00;375,6834
639,00;281,5876
640,00;222,2437
641,00;439,3087
642,00;345,4573
643,00;124,4352
644,00;-40,5314
645,00;174,4286
646,00;105,9281
647,00;90,0452
648,00;-134,3123
649,00;139,7755
650,00;-32,0600
651,00;-31,0160
652,00;9,6315
653,00;118,8462
654,00;83,2557
655,00;-76,8593
656,00;-73,5069
657,00;70,5192
658,00;94,0629
659,00;188,0008
660,00;194,3092
661,00;10,1764
662,00;4,4627
663,00;4,5241
664,00;17,1115
665,00;-17,5195
666,00;125,8483
667,00;105,8403
668,00;266,6368
669,00;56,9266
670,00;343,8795
671,00;-3,5138
672,00;-7,2861
673,00;15,2732
674,00;90,2887
675,00;668,6263
676,00;236,4903
677,00;288,2545
678,00;144,1575
679,00;171,2741
680,00;158,4384
681,00;148,1964
682,00;55,5677
683,00;192,9562
684,00;188,6053
685,00;132,5448
686,00;37,5321
687,00;400,5512
688,00;20,6477
689,00;-38,1106
690,00;11,9062
691,00;-52,2638
692,00;130,7584
693,00;86,4421
694,00;170,3421
695,00;39,3254
696,00;803,4518
697,00;572,8268
698,00;106,5565
699,00;48,9082
700,00;85,8277
701,00;52,3610
702,00;-16,3878
703,00;359,7377
704,00;17,1508
705,00;76,0068
706,00;467,6235
707,00;1014,3110
708,00;22,5071
709,00;125,3096
710,00;302,9387
711,00;-41,8292
712,00;60,7827
713,00;-78,9857
714,00;98,7819
715,00;163,0418
716,00;53,0074
717,00;-19,1895
718,00;5,9773
719,00;183,6971
720,00;111,8584
721,00;184,4675
722,00;-114,6919
723,00;9,1066
724,00;-5,4939
725,00;17,9291
726,00;91,1304
727,00;356,1394
728,00;187,9406
729,00;16,3032
730,00;-78,4005
731,00;126,0189
732,00;-53,8346
733,00;-31,1550
734,00;146,6847
735,00;169,2656
736,00;220,7049
737,00;556,0922
738,00;1401,9170
739,00;708,4656
740,00;59,2357
741,00;265,8904
742,00;204,9792
743,00;156,8234
744,00;501,4347
745,00;115,6021
746,00;68,9941
747,00;73,3674
748,00;6,3526
749,00;55,3899
750,00;5202,4940
751,00;4300,2690
752,00;1268,9950
753,00;116,4917
754,00;54,4887
755,00;36,7533
756,00;30,8364
757,00;17,6254
758,00;-172,5761
759,00;-44,0784
760,00;198,6340
761,00;251,1979
762,00;32,1723
763,00;2548,4730
764,00;1542,9120
765,00;-5,6746
766,00;42,1134
767,00;-71,7620
768,00;-81,4134
769,00;-21,4695
770,00;-24,9065
771,00;-34,9318
772,00;863,4685
773,00;413,9579
774,00;-0,3083
775,00;-68,5022
776,00;148,7445
777,00;3720,6530
778,00;1445,5430
779,00;48,1646
780,00;38,5077
781,00;-75,6853
782,00;-65,9441
783,00;54,2449
784,00;101,1519
785,00;-109,0435
786,00;-80,1166
787,00;14,8868
788,00;-1,6744
789,00;-11,1604
790,00;-40,6051
791,00;-89,6576
792,00;-67,9500
793,00;-66,8956
794,00;322,8022
795,00;720,6213
796,00;49,1861
797,00;29,2905
798,00;-31,0570
799,00;-67,9857
800,00;326,4362
801,00;810,8382
802,00;400,3858
803,00;-49,8148
804,00;-154,0588
805,00;16,5144
806,00;-125,7499
807,00;83,2025
808,00;-53,7608
809,00;-18,5161
810,00;1064,6870
811,00;2454,8830
812,00;1734,1560
813,00;-22,7103
814,00;28,9573
815,00;-73,6902
816,00;-74,0159
817,00;22,0029
818,00;-64,7086
819,00;-8,3406
820,00;-48,1227
821,00;22,8513
822,00;-35,0221
823,00;-143,8576
824,00;-64,8471
825,00;-91,8152
826,00;341,4872
827,00;104,0695
828,00;-55,3041
829,00;-48,2428
830,00;-125,8952
831,00;31,3278
832,00;-177,9960
833,00;-45,7826
834,00;-100,4808
835,00;-110,5266
836,00;-16,0555
837,00;50,2405
838,00;4,6562
839,00;91,8160
840,00;300,7938
841,00;670,8349
842,00;950,7066
843,00;611,4236
844,00;407,0122
845,00;575,1277
846,00;-13,0125
847,00;-55,1755
848,00;9,0301
849,00;-125,1389
850,00;-133,6566
851,00;-28,5363
852,00;267,5025
853,00;-140,3247
854,00;-20,5829
855,00;-55,9076
856,00;91,2197
857,00;10,1633
858,00;-92,3408
859,00;18,4964
860,00;70,8091
861,00;-42,9056
862,00;-73,1192
863,00;-24,6046
864,00;-102,0521
865,00;-49,0698
866,00;11,9023
867,00;-43,0388
868,00;-20,7782
869,00;49,1716
870,00;28,1817
871,00;-93,3822
872,00;-89,4604
873,00;-38,0894
874,00;-22,2969
875,00;29,1094
876,00;-62,0615
877,00;205,6180
878,00;-58,2384
879,00;-35,7050
880,00;69,3935
881,00;-33,3574
882,00;-19,1785
883,00;-10,1699
884,00;123,0080
885,00;-90,7367
886,00;-89,6315
887,00;-45,2007
888,00;-29,5792
889,00;-58,9095
890,00;-31,3430
891,00;65,6444
892,00;-75,8411
893,00;55,9592
894,00;-144,8961
895,00;-61,5897
896,00;-107,5493
897,00;-50,8736
898,00;-14,0474
899,00;-51,3280
900,00;-159,1154
901,00;86,1246
902,00;37,6611
903,00;-26,1396
904,00;-30,0322
905,00;6,6619
906,00;-175,1474
907,00;-130,8156
908,00;-126,5766
909,00;-100,0495
910,00;-164,8704
911,00;-25,7747
912,00;878,7032
913,00;351,6712
914,00;48,4499
915,00;-3,6036
916,00;-47,4667
917,00;-42,4795
918,00;-76,8321
919,00;14,7547
920,00;-92,3938
921,00;-77,4860
922,00;58,1337
923,00;37,8469
924,00;-48,0805
925,00;13,4198
926,00;131,5813
927,00;142,8627
928,00;-37,6228
929,00;-47,5628
930,00;-109,6849
931,00;-87,4246
932,00;-77,8271
933,00;-95,3100
934,00;-16,2857
935,00;-11,4996
936,00;122,0528
937,00;58,4276
938,00;73,2153
939,00;-22,9422
940,00;-62,8410
941,00;-119,2987
942,00;-139,7069
943,00;-113,4913
944,00;-142,1982
945,00;11,9245
946,00;-66,2715
947,00;78,3911
948,00;-14,9079
949,00;-91,8727
950,00;-81,9687
951,00;126,8823
952,00;-127,7777
953,00;-91,4917
954,00;-119,1844
955,00;-26,8144
956,00;-143,4949
957,00;-93,1472
958,00;-129,0708
959,00;29,4546
960,00;-98,9832
961,00;-96,8465
962,00;-43,4828
963,00;150,5634
964,00;-23,9740
965,00;-37,5289
966,00;145,4719
967,00;165,0437
968,00;3,5271
969,00;-82,5742
970,00;-126,6503
971,00;-52,3361
972,00;14,6844
973,00;-6,1881
974,00;-149,5047
975,00;112,8933
976,00;10,7158
977,00;-150,0812
978,00;-75,2090
979,00;3,0474
980,00;-148,4941
981,00;-52,5613
982,00;-138,1762
983,00;-71,0196
984,00;-189,1188
985,00;-39,9975
986,00;36,6528
987,00;103,2374
988,00;64,4963
989,00;-48,3676
990,00;81,8080
991,00;-93,9649
992,00;-37,5808
993,00;-24,8906
994,00;-181,3343
995,00;-37,4442
996,00;-110,5711
997,00;-41,9786
998,00;-48,2528
999,00;-128,0702
1000,00;134,2895
1001,00;56,1628
1002,00;-49,7988
1003,00;-5,4412
1004,00;-30,3755
1005,00;-67,8025
1006,00;-102,8995
1007,00;-48,5249
1008,00;38,6383
1009,00;-33,9424
1010,00;-27,4786
1011,00;55,0000
1012,00;5,8122
1013,00;-110,7885
1014,00;133,5583
1015,00;150,8938
1016,00;-87,7731
1017,00;-92,0455
1018,00;-34,5595
1019,00;-142,2565
1020,00;-86,0986
1021,00;-57,1143
1022,00;-174,1488
1023,00;-21,3379
1024,00;-57,2574
1025,00;42,8307
1026,00;90,5281
1027,00;-27,2022
1028,00;2,7905
1029,00;1,3511
1030,00;-37,7968
1031,00;-95,4397
1032,00;-30,3124
1033,00;14,0468
1034,00;-127,5393
1035,00;-164,6500
1036,00;63,6270
1037,00;-106,8184
1038,00;-98,6603
1039,00;14,1876
1040,00;-100,6277
1041,00;11,5957
1042,00;-20,4018
1043,00;80,4578
1044,00;299,8494
1045,00;-36,8812
1046,00;-97,2110
1047,00;54,7521
1048,00;-1,9824
1049,00;-73,7101
1050,00;-77,0435
1051,00;-76,0614
1052,00;-23,8105
1053,00;-178,3424
1054,00;-34,8348
1055,00;-128,0498
1056,00;-94,2016
1057,00;-83,3385
1058,00;75,6118
1059,00;10,0076
1060,00;-15,2277
1061,00;-85,7309
1062,00;-50,4062
1063,00;-120,1827
1064,00;-7,2767
1065,00;-40,4637
1066,00;-28,7870
1067,00;-27,5446
1068,00;-134,9368
1069,00;-84,7006
1070,00;-63,1236
1071,00;-103,0922
1072,00;35,2419
1073,00;17,2707
1074,00;-30,5143
1075,00;-16,0354
1076,00;-60,7148
1077,00;-64,9924
1078,00;-49,1937
1079,00;-15,8334
1080,00;-134,6460
1081,00;-45,7662
1082,00;-70,8045
1083,00;-156,2870
1084,00;-30,4920
1085,00;-34,5507
1086,00;30,8098
1087,00;-55,3982
1088,00;-17,3584
1089,00;84,5830
1090,00;-98,9140
1091,00;106,8008
1092,00;-49,1087
1093,00;69,2917
1094,00;34,1852
1095,00;41,7396
1096,00;-112,4988
1097,00;-65,7571
1098,00;-91,1543
1099,00;-79,3462
1100,00;-73,6706
