M- 9.2Pa 35W 25-50
Integration time: 1000 ms
Average: 20 scans
Nr of pixels used for smoothing: 0
Data measured with spectrometer serial number: 0501039S2
Wave   ;Sample
[nm]   ;[counts]
200,00;-179,9971
201,00;3,3704
202,00;-89,7896
203,00;-192,4862
204,00;-20,7269
205,00;-127,5408
206,00;-181,9260
207,00;-73,8030
208,00;-22,2431
209,00;108,9400
210,00;-162,8579
211,00;-28,2971
212,00;-124,0255
213,00;-35,7005
214,00;-66,8378
215,00;-59,4032
216,00;-86,2848
217,00;-116,0185
218,00;-129,8103
219,00;-111,6255
220,00;396,0627
221,00;21,8721
222,00;52,7602
223,00;-169,1451
224,00;-173,2240
225,00;81,9904
226,00;-35,4556
227,00;-66,9761
228,00;126,3242
229,00;-123,9212
230,00;15,1450
231,00;-81,0105
232,00;41,0984
233,00;53,0767
234,00;-92,6137
235,00;-26,0925
236,00;-100,7605
237,00;-57,5431
238,00;20,0061
239,00;-3,5739
240,00;-183,1135
241,00;-166,7558
242,00;-74,1616
243,00;-154,7545
244,00;154,4961
245,00;41,5722
246,00;-127,8616
247,00;-175,9667
248,00;5,6713
249,00;30,0840
250,00;-33,6667
251,00;144,9189
252,00;-136,0157
253,00;23,6139
254,00;-264,9468
255,00;-162,6001
256,00;-125,7923
257,00;57,0432
258,00;-53,8075
259,00;4,2815
260,00;-118,7783
261,00;1,3818
262,00;58,7942
263,00;-151,6603
264,00;60,7614
265,00;48,2432
266,00;0,6474
267,00;204,7253
268,00;-75,7796
269,00;135,3996
270,00;-92,6724
271,00;7,7574
272,00;-52,8265
273,00;-40,3042
274,00;-8,7122
275,00;73,3701
276,00;-28,4008
277,00;-115,5861
278,00;-78,5689
279,00;-92,8980
280,00;-81,4937
281,00;-4,2514
282,00;-4,1361
283,00;-2,3827
284,00;-108,6344
285,00;-197,2057
286,00;-32,7649
287,00;-65,2428
288,00;-95,0237
289,00;-93,0921
290,00;-73,2197
291,00;-118,2038
292,00;-119,1704
293,00;-15,0123
294,00;-13,6093
295,00;11,4953
296,00;-118,9105
297,00;-120,0516
298,00;-135,1740
299,00;-115,0020
300,00;-68,5563
301,00;40,1574
302,00;-109,4795
303,00;-89,2556
304,00;-84,2779
305,00;-105,7498
306,00;-50,8978
307,00;56,8022
308,00;5,8362
309,00;-72,9230
310,00;-145,7501
311,00;-16,0885
312,00;-44,3240
313,00;-7,8151
314,00;-40,5807
315,00;-113,1995
316,00;40,3392
317,00;-176,0357
318,00;-95,4387
319,00;24,1921
320,00;-110,6474
321,00;-24,9006
322,00;-113,5968
323,00;-176,2324
324,00;-29,5384
325,00;94,4187
326,00;-47,8333
327,00;-144,1496
328,00;-78,4424
329,00;1,2716
330,00;-77,3080
331,00;-98,5055
332,00;7,8197
333,00;-61,7622
334,00;-26,1262
335,00;-151,8799
336,00;-91,6181
337,00;81,3693
338,00;-19,7411
339,00;-34,2130
340,00;-34,0719
341,00;-112,1330
342,00;-75,2200
343,00;15,9682
344,00;-24,7766
345,00;-105,1448
346,00;201,6177
347,00;-103,1797
348,00;-84,0340
349,00;-163,7307
350,00;-73,0040
351,00;0,4107
352,00;-13,7989
353,00;-101,1552
354,00;80,4614
355,00;-186,9104
356,00;-18,9974
357,00;-60,8579
358,00;103,8436
359,00;25,7001
360,00;-69,2550
361,00;-156,1497
362,00;-160,8976
363,00;-145,0231
364,00;-137,0495
365,00;-21,6197
366,00;-33,1707
367,00;146,3294
368,00;-120,3435
369,00;14,5926
370,00;-5,0800
371,00;-29,4988
372,00;-155,8439
373,00;-80,2450
374,00;-123,5925
375,00;45,2232
376,00;-57,2735
377,00;48,3284
378,00;-124,5486
379,00;63,8138
380,00;113,8739
381,00;-100,8117
382,00;11,1879
383,00;-75,0235
384,00;23,1732
385,00;-37,4777
386,00;105,7453
387,00;-77,8670
388,00;-68,7942
389,00;-65,6225
390,00;67,2740
391,00;195,1798
392,00;97,4796
393,00;-114,0632
394,00;-37,9266
395,00;128,6545
396,00;102,9441
397,00;-88,2492
398,00;-27,8564
399,00;18,8585
400,00;-73,8113
401,00;-57,5675
402,00;-148,1859
403,00;-104,3686
404,00;114,9630
405,00;217,9264
406,00;155,6504
407,00;-29,9279
408,00;-44,2801
409,00;90,5709
410,00;-61,9064
411,00;63,2787
412,00;104,3155
413,00;29,3825
414,00;-50,3701
415,00;60,5858
416,00;424,4168
417,00;2,5742
418,00;216,0869
419,00;600,8708
420,00;945,6238
421,00;-123,6487
422,00;0,9813
423,00;48,5836
424,00;101,8993
425,00;314,2138
426,00;937,8610
427,00;450,6554
428,00;161,9364
429,00;79,0656
430,00;276,3029
431,00;208,2206
432,00;-13,4012
433,00;287,4381
434,00;146,0153
435,00;-18,9760
436,00;103,4959
437,00;336,5439
438,00;114,3811
439,00;159,8335
440,00;6,9995
441,00;-24,5991
442,00;-12,5930
443,00;155,3644
444,00;58,8329
445,00;175,5222
446,00;-13,8212
447,00;-56,1558
448,00;-108,8607
449,00;-16,8570
450,00;48,4207
451,00;435,6765
452,00;-2,2317
453,00;0,2663
454,00;-27,4526
455,00;-50,2112
456,00;-59,4614
457,00;51,2005
458,00;29,3719
459,00;-19,6470
460,00;-73,8110
461,00;16,7575
462,00;-87,7147
463,00;87,4834
464,00;26,2565
465,00;287,3959
466,00;113,8752
467,00;46,6526
468,00;-69,9581
469,00;36,4529
470,00;-44,7006
471,00;4,9542
472,00;-6,4611
473,00;81,4498
474,00;-78,4018
475,00;102,6439
476,00;79,0745
477,00;47,4965
478,00;48,1393
479,00;75,5098
480,00;112,3302
481,00;97,5226
482,00;-46,6558
483,00;17,4567
484,00;31,6011
485,00;-72,2951
486,00;-20,4779
487,00;37,2553
488,00;98,7496
489,00;87,9480
490,00;-131,0578
491,00;204,0622
492,00;59,0237
493,00;-77,0280
494,00;128,1817
495,00;111,9308
496,00;84,8789
497,00;141,0751
498,00;248,0293
499,00;127,9442
500,00;-7,9500
501,00;67,5052
502,00;-13,9418
503,00;-30,4490
504,00;15,4850
505,00;126,9292
506,00;9,4111
507,00;-3,6749
508,00;-7,2657
509,00;91,6344
510,00;11,2228
511,00;-107,9775
512,00;67,9758
513,00;-22,8183
514,00;58,9389
515,00;27,7726
516,00;372,8387
517,00;1,9897
518,00;53,6246
519,00;163,4548
520,00;-57,8841
521,00;168,9480
522,00;380,3293
523,00;566,4766
524,00;546,5200
525,00;955,0305
526,00;895,1712
527,00;669,2518
528,00;603,2664
529,00;402,4184
530,00;329,5197
531,00;91,2929
532,00;-20,1100
533,00;192,0368
534,00;-32,5817
535,00;5,4553
536,00;44,5505
537,00;58,3925
538,00;79,2774
539,00;-55,4568
540,00;-158,4464
541,00;-84,6162
542,00;147,1640
543,00;132,1925
544,00;323,5222
545,00;224,9671
546,00;35,4406
547,00;-61,1315
548,00;118,8581
549,00;139,9124
550,00;336,6310
551,00;78,4211
552,00;130,8187
553,00;406,2435
554,00;204,0688
555,00;564,3326
556,00;875,8800
557,00;1122,4490
558,00;1922,7480
559,00;2051,1890
560,00;2029,8500
561,00;1734,7240
562,00;1440,8400
563,00;786,3112
564,00;239,0501
565,00;170,8245
566,00;46,3651
567,00;144,0231
568,00;256,5220
569,00;32,8648
570,00;83,7976
571,00;178,0179
572,00;118,8819
573,00;53,1216
574,00;291,9906
575,00;119,0510
576,00;-43,9758
577,00;39,6590
578,00;-24,3107
579,00;54,8132
580,00;186,6902
581,00;242,1809
582,00;173,0196
583,00;168,6535
584,00;203,8087
585,00;193,1747
586,00;535,6557
587,00;385,7336
588,00;437,5751
589,00;438,3263
590,00;312,7918
591,00;540,7083
592,00;272,6285
593,00;341,0858
594,00;195,7822
595,00;347,6019
596,00;591,2058
597,00;1111,2220
598,00;886,5631
599,00;888,2567
600,00;680,4940
601,00;597,6226
602,00;569,3768
603,00;908,8835
604,00;405,2449
605,00;409,0151
606,00;117,1094
607,00;-45,6305
608,00;43,8836
609,00;-50,8270
610,00;21,8219
611,00;119,6705
612,00;19,3007
613,00;-17,8770
614,00;-10,7818
615,00;46,7971
616,00;243,2461
617,00;159,5742
618,00;271,5584
619,00;51,0742
620,00;-14,6865
621,00;171,7094
622,00;72,8280
623,00;42,5255
624,00;-175,2522
625,00;-96,4960
626,00;51,3895
627,00;180,3076
628,00;17,4740
629,00;33,1940
630,00;62,2173
631,00;83,8229
632,00;129,4987
633,00;122,6464
634,00;273,3883
635,00;546,1243
636,00;728,8516
637,00;397,4063
638,00;464,0249
639,00;372,0922
640,00;308,5024
641,00;433,8151
642,00;328,9014
643,00;144,9887
644,00;-43,5074
645,00;201,7321
646,00;106,3940
647,00;70,1963
648,00;-161,4602
649,00;128,1477
650,00;-50,1705
651,00;-52,9705
652,00;-11,1446
653,00;128,5494
654,00;63,5598
655,00;-118,6478
656,00;-81,5672
657,00;76,9658
658,00;97,5116
659,00;192,4930
660,00;160,3790
661,00;5,2499
662,00;7,7787
663,00;-1,3872
664,00;11,7898
665,00;-34,1930
666,00;96,9857
667,00;82,3726
668,00;261,8547
669,00;48,0285
670,00;392,8453
671,00;14,9572
672,00;-2,3890
673,00;20,3805
674,00;84,4932
675,00;452,0948
676,00;182,3395
677,00;305,1597
678,00;169,9855
679,00;233,5598
680,00;209,2314
681,00;211,3811
682,00;73,5944
683,00;232,5964
684,00;255,4167
685,00;162,0884
686,00;18,6585
687,00;161,6279
688,00;-53,8357
689,00;-91,5687
690,00;3,8431
691,00;-75,2784
692,00;122,6753
693,00;58,1751
694,00;97,4673
695,00;-3,3043
696,00;406,7432
697,00;300,4271
698,00;111,4394
699,00;45,0312
700,00;97,0968
701,00;49,9022
702,00;-48,4751
703,00;233,0330
704,00;0,0591
705,00;67,6808
706,00;168,6805
707,00;551,1728
708,00;-3,1852
709,00;146,7767
710,00;314,7233
711,00;-76,0852
712,00;53,6277
713,00;-115,1770
714,00;59,8801
715,00;126,9993
716,00;30,7965
717,00;-15,5486
718,00;12,2641
719,00;189,4462
720,00;80,0853
721,00;141,2731
722,00;-136,4397
723,00;5,7934
724,00;-8,4516
725,00;24,9294
726,00;63,2324
727,00;246,7118
728,00;168,8718
729,00;1,4915
730,00;-97,1167
731,00;71,9608
732,00;-94,2132
733,00;-58,1957
734,00;142,1102
735,00;83,7303
736,00;218,8113
737,00;364,9409
738,00;813,1610
739,00;429,1683
740,00;34,3505
741,00;277,9523
742,00;206,1874
743,00;121,9511
744,00;525,8897
745,00;126,5654
746,00;64,7425
747,00;54,1817
748,00;-37,8188
749,00;4,8818
750,00;2873,8910
751,00;2533,0700
752,00;748,6768
753,00;84,5695
754,00;12,0397
755,00;31,8911
756,00;-0,0301
757,00;-2,9989
758,00;-213,2644
759,00;-66,9828
760,00;211,7792
761,00;261,7038
762,00;-7,1056
763,00;1429,2870
764,00;977,3479
765,00;-66,2574
766,00;29,1969
767,00;-91,1168
768,00;-110,5970
769,00;-46,0130
770,00;-69,8490
771,00;-67,8119
772,00;438,8370
773,00;254,3254
774,00;-8,3516
775,00;-89,9879
776,00;159,1223
777,00;4558,4880
778,00;1936,1230
779,00;62,9140
780,00;31,8602
781,00;-74,6243
782,00;-69,1768
783,00;50,1722
784,00;106,8708
785,00;-128,5796
786,00;-94,5306
787,00;5,8441
788,00;-5,7825
789,00;-31,3399
790,00;-49,0383
791,00;-108,8780
792,00;-92,8178
793,00;-83,3874
794,00;229,8851
795,00;355,4351
796,00;25,8636
797,00;26,4522
798,00;-31,5349
799,00;-91,1953
800,00;261,5539
801,00;411,1435
802,00;205,0476
803,00;-71,7867
804,00;-166,3228
805,00;4,9185
806,00;-164,6734
807,00;86,7881
808,00;-70,6817
809,00;-42,2402
810,00;575,7558
811,00;1319,4280
812,00;1053,1190
813,00;-66,3239
814,00;2,0855
815,00;-89,1128
816,00;-105,0061
817,00;29,9106
818,00;-73,9613
819,00;-24,8606
820,00;-69,1846
821,00;23,0637
822,00;-38,4453
823,00;-167,0957
824,00;-91,2313
825,00;-102,0060
826,00;194,0648
827,00;17,3314
828,00;-77,5075
829,00;-67,4290
830,00;-148,9522
831,00;37,4339
832,00;-214,9664
833,00;-62,6237
834,00;-132,9909
835,00;-118,9104
836,00;-10,5971
837,00;57,6609
838,00;-14,8049
839,00;86,8037
840,00;166,3042
841,00;356,5130
842,00;503,2427
843,00;387,9841
844,00;420,9494
845,00;792,0935
846,00;-16,3406
847,00;-66,4830
848,00;17,6798
849,00;-157,0013
850,00;-156,5274
851,00;-95,2746
852,00;96,4160
853,00;-173,7015
854,00;-29,7073
855,00;-58,6977
856,00;82,7713
857,00;9,0762
858,00;-108,8687
859,00;30,8098
860,00;54,9952
861,00;-61,9751
862,00;-99,7010
863,00;-15,1584
864,00;-120,9076
865,00;-55,6138
866,00;-14,4949
867,00;-76,1599
868,00;-27,9370
869,00;45,0857
870,00;12,4532
871,00;-105,6126
872,00;-99,8679
873,00;-34,0760
874,00;-36,1678
875,00;45,2139
876,00;-89,7503
877,00;245,1795
878,00;-76,2434
879,00;-46,4267
880,00;69,0554
881,00;-31,0274
882,00;-36,7098
883,00;-14,6206
884,00;144,1204
885,00;-99,7809
886,00;-100,8524
887,00;-53,2288
888,00;-38,0168
889,00;-58,6303
890,00;-39,2953
891,00;66,0784
892,00;-90,4558
893,00;85,1667
894,00;-161,7940
895,00;-69,3774
896,00;-135,9682
897,00;-67,9002
898,00;-20,8706
899,00;-54,7895
900,00;-189,8275
901,00;94,8398
902,00;41,9164
903,00;-16,4496
904,00;-31,2552
905,00;2,8382
906,00;-219,4952
907,00;-144,1452
908,00;-138,7741
909,00;-121,4278
910,00;-203,9762
911,00;-50,8140
912,00;487,5110
913,00;268,9758
914,00;33,5058
915,00;-13,8014
916,00;-54,6879
917,00;-43,5430
918,00;-93,9023
919,00;3,6971
920,00;-98,1380
921,00;-86,2897
922,00;-7,8978
923,00;-8,6852
924,00;-57,4166
925,00;28,0588
926,00;173,8512
927,00;169,3577
928,00;-39,5123
929,00;-50,4691
930,00;-138,7939
931,00;-104,1102
932,00;-89,6673
933,00;-109,4313
934,00;-12,4253
935,00;-14,8421
936,00;137,3210
937,00;63,3146
938,00;75,5331
939,00;-21,2205
940,00;-71,9988
941,00;-142,7045
942,00;-154,9748
943,00;-130,0654
944,00;-164,3202
945,00;11,5800
946,00;-94,2074
947,00;84,7187
948,00;-9,2347
949,00;-103,4890
950,00;-102,1239
951,00;142,3175
952,00;-155,1563
953,00;-109,7432
954,00;-137,0446
955,00;-21,2516
956,00;-160,7058
957,00;-98,0220
958,00;-131,6506
959,00;23,1348
960,00;-123,7752
961,00;-101,7028
962,00;-46,1021
963,00;159,6689
964,00;-38,1374
965,00;-71,3967
966,00;116,0556
967,00;194,6935
968,00;-2,6491
969,00;-96,2968
970,00;-141,3003
971,00;-61,7029
972,00;3,8821
973,00;-7,4796
974,00;-173,3921
975,00;140,2774
976,00;16,7494
977,00;-176,5358
978,00;-97,9177
979,00;-2,7909
980,00;-154,4499
981,00;-52,3604
982,00;-150,1173
983,00;-76,0055
984,00;-196,0468
985,00;-43,0283
986,00;25,6655
987,00;105,2304
988,00;69,3727
989,00;-51,1978
990,00;97,3769
991,00;-121,4035
992,00;-40,3289
993,00;-14,4299
994,00;-199,1225
995,00;-30,1899
996,00;-137,7761
997,00;-44,7857
998,00;-52,7538
999,00;-154,1969
1000,00;136,1178
1001,00;84,4892
1002,00;-65,7396
1003,00;-8,0511
1004,00;-38,4120
1005,00;-80,7301
1006,00;-115,9115
1007,00;-55,9186
1008,00;44,4115
1009,00;-50,0427
1010,00;-20,3230
1011,00;56,0562
1012,00;15,5814
1013,00;-141,5336
1014,00;165,7121
1015,00;156,3970
1016,00;-109,5825
1017,00;-129,8314
1018,00;-36,1966
1019,00;-159,3875
1020,00;-87,0997
1021,00;-59,2051
1022,00;-203,5282
1023,00;-20,5294
1024,00;-73,9038
1025,00;39,8863
1026,00;100,9041
1027,00;-39,6999
1028,00;-7,8852
1029,00;-0,5027
1030,00;-61,5408
1031,00;-110,4917
1032,00;-37,8159
1033,00;22,9370
1034,00;-153,7272
1035,00;-178,1674
1036,00;80,3152
1037,00;-110,8493
1038,00;-118,6034
1039,00;10,5844
1040,00;-104,4255
1041,00;17,1375
1042,00;-29,8392
1043,00;93,1559
1044,00;334,1781
1045,00;-35,9641
1046,00;-105,0896
1047,00;52,0326
1048,00;-6,7212
1049,00;-82,4021
1050,00;-80,9546
1051,00;-90,5221
1052,00;-36,3544
1053,00;-203,9879
1054,00;-27,3168
1055,00;-141,2580
1056,00;-120,8851
1057,00;-102,6909
1058,00;92,6916
1059,00;10,2424
1060,00;-40,1192
1061,00;-113,1205
1062,00;-59,1218
1063,00;-122,5182
1064,00;-6,6237
1065,00;-58,6267
1066,00;-20,1527
1067,00;-22,0351
1068,00;-159,3271
1069,00;-99,4834
1070,00;-76,0689
1071,00;-111,0736
1072,00;28,2236
1073,00;15,1869
1074,00;-37,4302
1075,00;-7,0858
1076,00;-82,2439
1077,00;-89,8177
1078,00;-64,2210
1079,00;-22,1649
1080,00;-143,8759
1081,00;-61,8423
1082,00;-73,9780
1083,00;-182,5053
1084,00;-16,6435
1085,00;-50,6547
1086,00;23,7173
1087,00;-80,8599
1088,00;-14,0826
1089,00;112,6150
1090,00;-121,5020
1091,00;100,9294
1092,00;-60,3449
1093,00;85,6492
1094,00;36,4887
1095,00;28,5246
1096,00;-133,4897
1097,00;-78,6658
1098,00;-97,2837
1099,00;-93,4217
1100,00;-90,7807
