## SPECTRUM TYPE:
Spectroscopic

## DATE:
11/9/2011

## COMMENTS:

## NUMBER OF SPECTRUM:
5

## ELLIPSOMETRIC CONFIGURATION:
0.00 ø :Modulator
-45.00 øAnalyser

## UNIT:
eV


# SPECTRUM:
1

# START TIME:
11:25:35

# END TIME:
11:37:19

# THETA ANGLE:
0.00 ø

# INCIDENCE ANGLE:
55.00 ø

# ACCUMULATION NUMBER:
1

# ELLIPSOMETRIC CONFIGURATION:
0.00 ø :Modulator
-45.00 øAnalyser

# INTEGRATION TIME:
500 ms

# FIRST POINT:
0.6000 eV

# LAST POINT:
6.5000 eV

# INCREMENT:
0.0250 eV

# NUMBER OF POINTS:
237

# DATA:
eV Hv S0 Psi Delta Is Ic 
0.600 1797.1 60.778 25.897 211.006 0.40479 0.67351 
0.625 1600.2 72.077 24.372 212.213 0.40074 0.63605 
0.650 1600.2 78.756 25.051 211.032 0.39549 0.65738 
0.675 1600.2 76.320 24.980 210.078 0.38370 0.66250 
0.700 1403.4 75.613 25.175 207.221 0.35220 0.68469 
0.725 1301.8 73.406 25.772 204.130 0.32013 0.71467 
0.750 1301.8 76.731 26.168 200.622 0.27880 0.74088 
0.775 1200.2 75.784 26.417 196.988 0.23283 0.76212 
0.800 800.1 66.495 26.769 193.422 0.18668 0.78228 
0.825 1098.6 74.638 28.268 189.209 0.13351 0.82349 
0.850 1098.6 72.124 26.942 185.343 0.07523 0.80431 
0.875 800.1 78.586 26.541 181.373 0.01915 0.79928 
0.900 901.7 67.621 27.710 177.181 -0.04049 0.82234 
0.925 1003.3 71.036 27.259 173.068 -0.09828 0.80834 
0.950 1003.3 61.738 27.159 168.848 -0.15711 0.79693 
0.975 806.5 75.240 26.944 164.723 -0.21286 0.77932 
1.000 1003.3 60.578 27.071 160.828 -0.26616 0.76552 
1.025 1003.3 62.175 26.796 156.987 -0.31464 0.74077 
1.050 704.9 68.869 26.415 153.287 -0.35820 0.71180 
1.075 1104.9 71.472 26.065 149.547 -0.40010 0.68049 
1.100 1104.9 72.223 26.097 146.120 -0.44044 0.65595 
1.125 1104.9 65.797 25.587 142.097 -0.47859 0.61472 
1.150 1104.9 71.088 24.974 137.105 -0.52102 0.56079 
1.175 1206.5 71.592 24.648 128.758 -0.59115 0.47458 
1.200 1505.0 60.892 25.196 113.221 -0.70802 0.30377 
1.225 1403.4 73.267 28.032 94.983 -0.82652 0.07207 
1.250 1104.9 77.425 32.194 77.572 -0.88061 -0.19407 
1.275 2705.1 61.317 36.605 58.812 -0.81900 -0.49578 
1.300 3905.3 49.725 38.531 29.699 -0.48286 -0.84659 
1.325 3905.3 35.776 39.384 357.998 0.03427 -0.98025 
1.350 3905.3 73.494 39.506 318.171 0.65468 -0.73148 
1.375 3708.4 77.945 36.419 293.360 0.87715 -0.37885 
1.400 2108.2 79.238 32.976 272.564 0.91229 -0.04085 
1.425 3905.3 33.093 29.960 260.054 0.85232 0.14946 
1.450 3905.3 18.732 28.426 247.807 0.77523 0.31625 
1.475 761.0 69.948 26.214 236.531 0.66116 0.43710 
1.500 561.0 71.969 26.534 230.643 0.61807 0.50690 
1.525 652.0 74.715 25.587 223.647 0.53771 0.56372 
1.550 572.0 62.675 25.601 217.017 0.46922 0.62229 
1.575 609.0 68.138 25.756 210.794 0.40073 0.67239 
1.600 609.0 77.683 25.894 204.725 0.32864 0.71370 
1.625 537.0 71.909 25.831 199.486 0.26164 0.73943 
1.650 552.0 68.572 25.981 193.905 0.18927 0.76452 
1.675 538.0 70.862 25.871 188.528 0.11644 0.77656 
1.700 525.0 70.150 26.065 183.251 0.04477 0.78813 
1.725 525.0 79.110 25.780 178.007 -0.02724 0.78279 
1.750 507.0 69.508 25.876 172.771 -0.09882 0.77909 
1.775 507.0 76.814 25.547 167.490 -0.16856 0.75970 
1.800 486.0 70.484 25.484 162.169 -0.23787 0.73948 
1.825 486.0 72.319 25.273 156.858 -0.30345 0.71000 
1.850 486.0 75.501 24.766 151.231 -0.36614 0.66687 
1.875 486.0 75.950 24.413 145.531 -0.42600 0.62056 
1.900 486.0 77.920 24.012 139.237 -0.48540 0.56308 
1.925 486.0 76.345 23.560 132.886 -0.53691 0.49868 
1.950 486.0 71.964 23.138 125.709 -0.58681 0.42181 
1.975 486.0 67.035 22.643 117.305 -0.63145 0.32598 
2.000 496.0 68.709 22.263 107.624 -0.66831 0.21231 
2.025 509.0 67.737 21.849 95.330 -0.68788 0.06418 
2.050 529.0 67.880 21.435 80.123 -0.67024 -0.11670 
2.075 529.0 60.816 20.752 59.783 -0.57262 -0.33351 
2.100 550.0 67.937 19.986 33.515 -0.35471 -0.53560 
2.125 550.0 64.388 19.086 3.412 -0.03679 -0.61694 
2.150 550.0 72.496 18.280 330.827 0.29036 -0.52012 
2.175 529.0 69.439 17.967 301.098 0.50251 -0.30310 
2.200 509.0 68.572 17.984 277.545 0.58225 -0.07712 
2.225 492.0 71.445 18.270 258.684 0.58380 0.11682 
2.250 476.0 71.020 18.639 244.099 0.54484 0.26457 
2.275 460.0 68.782 19.022 233.052 0.49251 0.37044 
2.300 451.0 70.628 19.439 223.475 0.43185 0.45548 
2.325 442.0 70.800 19.834 215.223 0.36817 0.52147 
2.350 442.0 79.658 20.152 208.285 0.30651 0.56961 
2.375 429.0 70.913 20.391 202.048 0.24518 0.60541 
2.400 429.0 76.834 20.572 196.301 0.18467 0.63151 
2.425 419.0 70.744 20.714 190.772 0.12367 0.65002 
2.450 411.0 71.229 20.722 185.889 0.06792 0.65841 
2.475 411.0 76.159 20.682 181.171 0.01350 0.66071 
2.500 391.0 71.006 20.721 176.371 -0.04190 0.66054 
2.525 391.0 74.469 20.366 171.914 -0.09178 0.64604 
2.550 391.0 69.326 20.082 167.693 -0.13747 0.63016 
2.575 391.0 75.498 19.776 163.634 -0.17943 0.61097 
2.600 391.0 64.796 19.235 159.422 -0.21866 0.58242 
2.625 391.0 75.429 18.642 155.258 -0.25353 0.55015 
2.650 391.0 78.449 17.983 151.356 -0.28153 0.51543 
2.675 391.0 62.706 17.270 147.626 -0.30359 0.47886 
2.700 405.0 68.590 16.331 143.631 -0.32002 0.43457 
2.725 415.0 69.822 15.284 139.713 -0.32885 0.38795 
2.750 415.0 67.359 14.075 136.192 -0.32659 0.34047 
2.775 428.0 68.274 12.743 133.085 -0.31425 0.29392 
2.800 428.0 61.493 11.311 130.945 -0.29054 0.25207 
2.825 438.0 68.024 9.766 130.008 -0.25609 0.21494 
2.850 438.0 61.496 8.126 132.014 -0.20794 0.18732 
2.875 449.0 69.738 6.731 137.889 -0.15610 0.17269 
2.900 449.0 68.159 5.789 148.633 -0.10446 0.17136 
2.925 449.0 68.290 5.529 163.326 -0.05504 0.18375 
2.950 449.0 71.065 6.000 177.330 -0.00969 0.20768 
2.975 449.0 72.447 6.903 185.933 0.02467 0.23736 
3.000 449.0 74.892 8.096 189.932 0.04810 0.27469 
3.025 449.0 78.195 9.174 191.261 0.06147 0.30874 
3.050 449.0 80.107 10.270 190.772 0.06558 0.34468 
3.075 439.0 69.630 11.196 189.448 0.06254 0.37578 
3.100 421.0 69.584 12.055 187.536 0.05357 0.40496 
3.125 421.0 72.472 12.738 185.384 0.04036 0.42824 
3.150 421.0 73.402 13.396 182.938 0.02310 0.45017 
3.175 421.0 72.173 13.853 180.491 0.00398 0.46492 
3.200 421.0 71.173 14.182 178.056 -0.01612 0.47480 
3.225 421.0 70.753 14.519 175.785 -0.03568 0.48407 
3.250 421.0 70.680 14.717 173.319 -0.05717 0.48808 
3.275 421.0 67.717 14.875 170.798 -0.07935 0.48982 
3.300 421.0 64.768 14.891 168.405 -0.09983 0.48656 
3.325 430.0 69.250 14.809 165.969 -0.11982 0.47946 
3.350 430.0 65.118 14.753 163.711 -0.13814 0.47274 
3.375 430.0 64.392 14.543 161.758 -0.15217 0.46169 
3.400 430.0 63.184 14.244 159.993 -0.16319 0.44819 
3.425 430.0 62.461 13.932 158.700 -0.16978 0.43546 
3.450 430.0 59.556 13.683 157.666 -0.17467 0.42519 
3.475 441.0 68.797 13.365 156.844 -0.17688 0.41356 
3.500 441.0 65.789 12.993 156.293 -0.17617 0.40119 
3.525 441.0 62.150 12.722 156.110 -0.17399 0.39281 
3.550 451.0 69.863 12.451 155.951 -0.17159 0.38452 
3.575 451.0 66.885 12.184 156.139 -0.16690 0.37732 
3.600 451.0 64.080 12.015 156.628 -0.16153 0.37379 
3.625 451.0 62.315 11.847 157.087 -0.15645 0.37014 
3.650 451.0 60.909 11.668 157.665 -0.15054 0.36640 
3.675 451.0 59.807 11.609 158.348 -0.14546 0.36641 
3.700 461.0 68.611 11.559 159.090 -0.14013 0.36677 
3.725 461.0 67.806 11.557 159.798 -0.13556 0.36842 
3.750 461.0 66.767 11.532 160.355 -0.13170 0.36896 
3.775 461.0 64.800 11.598 160.846 -0.12923 0.37206 
3.800 461.0 62.499 11.662 161.274 -0.12711 0.37498 
3.825 461.0 59.302 11.742 161.646 -0.12548 0.37821 
3.850 473.0 67.789 11.858 161.909 -0.12490 0.38233 
3.875 473.0 62.319 11.966 162.134 -0.12445 0.38609 
3.900 484.0 67.989 12.063 162.065 -0.12586 0.38887 
3.925 484.0 62.357 12.158 161.968 -0.12746 0.39155 
3.950 494.0 68.407 12.204 161.807 -0.12902 0.39258 
3.975 494.0 63.597 12.307 161.489 -0.13223 0.39494 
4.000 504.0 68.758 12.359 161.261 -0.13434 0.39599 
4.025 504.0 64.101 12.413 160.784 -0.13820 0.39648 
4.050 504.0 60.222 12.516 160.543 -0.14095 0.39897 
4.075 516.0 67.895 12.509 160.184 -0.14336 0.39787 
4.100 516.0 63.166 12.558 159.780 -0.14671 0.39831 
4.125 527.0 68.548 12.601 159.315 -0.15040 0.39836 
4.150 527.0 64.087 12.544 158.806 -0.15330 0.39534 
4.175 527.0 60.430 12.610 158.468 -0.15639 0.39636 
4.200 539.0 68.043 12.618 157.965 -0.15996 0.39521 
4.225 539.0 64.691 12.598 157.538 -0.16265 0.39341 
4.250 539.0 61.979 12.547 157.205 -0.16431 0.39098 
4.275 551.0 70.057 12.508 156.887 -0.16599 0.38892 
4.300 533.0 71.460 12.615 156.599 -0.16929 0.39118 
4.325 533.0 74.907 12.609 156.235 -0.17169 0.38993 
4.350 533.0 78.621 12.568 155.942 -0.17316 0.38786 
4.375 523.0 69.212 12.573 155.961 -0.17310 0.38808 
4.400 523.0 70.590 12.464 155.617 -0.17400 0.38389 
4.425 523.0 71.946 12.295 155.233 -0.17433 0.37785 
4.450 523.0 72.257 12.376 155.345 -0.17466 0.38052 
4.475 523.0 71.839 12.263 155.123 -0.17463 0.37659 
4.500 523.0 71.940 12.348 155.157 -0.17553 0.37914 
4.525 523.0 72.289 12.364 155.139 -0.17587 0.37955 
4.550 523.0 70.323 12.413 155.188 -0.17620 0.38112 
4.575 523.0 68.853 12.429 155.023 -0.17751 0.38106 
4.600 523.0 68.602 12.238 154.797 -0.17642 0.37487 
4.625 523.0 66.117 12.346 154.853 -0.17751 0.37815 
4.650 523.0 64.013 12.201 154.578 -0.17735 0.37312 
4.675 523.0 62.202 12.172 154.396 -0.17814 0.37173 
4.700 523.0 60.636 12.314 154.571 -0.17893 0.37634 
4.725 534.0 69.435 12.233 154.496 -0.17832 0.37379 
4.750 534.0 66.170 12.330 154.385 -0.18038 0.37622 
4.775 534.0 63.483 12.267 154.383 -0.17953 0.37442 
4.800 534.0 61.829 12.294 154.040 -0.18215 0.37412 
4.825 545.0 68.437 12.364 154.095 -0.18275 0.37627 
4.850 545.0 66.932 12.427 154.485 -0.18105 0.37933 
4.875 545.0 63.280 12.388 153.967 -0.18392 0.37654 
4.900 545.0 61.970 12.256 153.731 -0.18362 0.37203 
4.925 557.0 70.710 12.363 153.536 -0.18640 0.37445 
4.950 557.0 68.438 12.471 153.931 -0.18532 0.37880 
4.975 557.0 66.501 12.437 153.752 -0.18603 0.37726 
5.000 557.0 65.047 12.559 153.753 -0.18772 0.38071 
5.025 557.0 63.222 12.447 153.170 -0.18998 0.37562 
5.050 557.0 60.729 12.327 153.110 -0.18866 0.37203 
5.075 569.0 69.292 12.330 152.801 -0.19071 0.37110 
5.100 569.0 65.936 12.365 152.744 -0.19159 0.37189 
5.125 569.0 64.157 12.470 152.568 -0.19425 0.37425 
5.150 569.0 61.730 12.457 152.872 -0.19208 0.37491 
5.175 582.0 69.900 12.512 152.547 -0.19501 0.37538 
5.200 582.0 68.095 12.442 152.573 -0.19381 0.37348 
5.225 582.0 64.914 12.493 152.288 -0.19643 0.37396 
5.250 582.0 61.965 12.510 152.295 -0.19663 0.37444 
5.275 582.0 59.967 12.501 152.160 -0.19737 0.37372 
5.300 599.0 71.252 12.393 151.732 -0.19855 0.36923 
5.325 599.0 69.066 12.420 151.612 -0.19972 0.36956 
5.350 599.0 66.111 12.566 151.965 -0.19961 0.37486 
5.375 599.0 64.820 12.528 151.782 -0.20024 0.37317 
5.400 599.0 62.526 12.544 151.515 -0.20223 0.37269 
5.425 599.0 60.664 12.518 151.302 -0.20322 0.37121 
5.450 611.0 68.189 12.475 151.078 -0.20400 0.36921 
5.475 611.0 65.823 12.392 150.790 -0.20458 0.36589 
5.500 611.0 63.288 12.484 151.192 -0.20341 0.36988 
5.525 611.0 61.412 12.598 151.014 -0.20630 0.37240 
5.550 626.0 70.175 12.495 150.688 -0.20682 0.36836 
5.575 626.0 67.183 12.615 150.901 -0.20729 0.37245 
5.600 626.0 64.469 12.550 150.199 -0.21082 0.36809 
5.625 626.0 61.815 12.570 150.450 -0.20953 0.36958 
5.650 639.0 68.198 12.599 150.533 -0.20943 0.37066 
5.675 639.0 65.367 12.609 150.256 -0.21138 0.36992 
5.700 639.0 61.410 12.417 149.451 -0.21347 0.36169 
5.725 652.0 68.230 12.637 150.231 -0.21198 0.37062 
5.750 652.0 63.679 12.608 150.034 -0.21280 0.36909 
5.775 652.0 59.560 12.629 149.746 -0.21498 0.36858 
5.800 669.0 67.344 12.652 149.664 -0.21588 0.36889 
5.825 669.0 64.087 12.632 149.507 -0.21657 0.36777 
5.850 669.0 58.915 12.600 149.294 -0.21742 0.36610 
5.875 687.0 67.663 12.575 149.087 -0.21834 0.36463 
5.900 687.0 63.128 12.635 148.977 -0.22001 0.36583 
5.925 702.0 67.711 12.666 148.635 -0.22270 0.36534 
5.950 702.0 62.177 12.621 149.667 -0.21537 0.36807 
5.975 719.0 67.698 12.699 149.144 -0.21997 0.36819 
6.000 719.0 63.160 12.716 148.354 -0.22532 0.36559 
6.025 736.0 68.409 12.775 148.996 -0.22216 0.36967 
6.050 736.0 63.009 12.771 148.561 -0.22489 0.36786 
6.075 736.0 57.782 12.619 148.097 -0.22533 0.36196 
6.100 756.0 66.181 12.532 147.632 -0.22680 0.35782 
6.125 756.0 60.031 12.838 148.212 -0.22825 0.36829 
6.150 775.0 66.387 12.645 147.609 -0.22885 0.36073 
6.175 775.0 61.601 12.753 147.694 -0.23013 0.36396 
6.200 780.0 59.661 12.607 147.125 -0.23123 0.35777 
6.225 780.0 56.142 12.528 147.235 -0.22921 0.35613 
6.250 780.0 51.804 12.681 148.019 -0.22687 0.36334 
6.275 780.0 47.846 12.635 147.139 -0.23163 0.35859 
6.300 780.0 44.049 12.501 147.820 -0.22509 0.35772 
6.325 780.0 40.661 12.633 147.219 -0.23109 0.35884 
6.350 780.0 37.078 12.603 147.722 -0.22743 0.36007 
6.375 780.0 33.770 12.816 148.240 -0.22770 0.36781 
6.400 780.0 30.479 12.633 146.536 -0.23535 0.35607 
6.425 780.0 27.297 12.581 147.615 -0.22772 0.35905 
6.450 780.0 23.801 12.748 147.722 -0.22986 0.36392 
6.475 780.0 20.932 12.559 147.687 -0.22690 0.35874 
6.500 780.0 18.097 12.774 148.291 -0.22668 0.36690 

# MINIMA:
0.600 391.0 18.097 5.529 3.412 -0.88061 -0.98025 

# MAXIMA:
6.500 3905.3 80.107 39.506 357.998 0.91229 0.82349 

# PEAKS:

# END SPECTRUM


# SPECTRUM:
2

# START TIME:
11:38:03

# END TIME:
11:48:39

# THETA ANGLE:
0.00 ø

# INCIDENCE ANGLE:
60.00 ø

# ACCUMULATION NUMBER:
1

# ELLIPSOMETRIC CONFIGURATION:
0.00 ø :Modulator
-45.00 øAnalyser

# INTEGRATION TIME:
500 ms

# FIRST POINT:
0.6000 eV

# LAST POINT:
6.5000 eV

# INCREMENT:
0.0250 eV

# NUMBER OF POINTS:
237

# DATA:
eV Hv S0 Psi Delta Is Ic 
0.600 1797.1 62.326 19.304 226.610 0.45345 0.42865 
0.625 1600.2 73.652 19.572 226.979 0.46154 0.43070 
0.650 1498.6 71.524 21.071 225.394 0.47770 0.47117 
0.675 1498.6 68.101 22.007 222.671 0.47095 0.51088 
0.700 1397.0 75.932 21.853 219.379 0.43838 0.53409 
0.725 1295.4 74.823 21.656 216.112 0.40429 0.55416 
0.750 1295.4 77.156 22.245 211.189 0.36291 0.59949 
0.775 1193.8 76.400 21.845 206.922 0.31276 0.61590 
0.800 793.8 69.253 22.055 201.658 0.25688 0.64691 
0.825 1092.2 74.767 22.355 196.056 0.19457 0.67607 
0.850 1092.2 73.044 22.435 190.394 0.12728 0.69392 
0.875 793.8 77.411 22.174 184.875 0.05941 0.69648 
0.900 895.4 71.209 22.280 178.860 -0.01396 0.70153 
0.925 997.0 73.345 22.173 173.167 -0.08317 0.69402 
0.950 997.0 64.767 22.328 167.444 -0.15279 0.68604 
0.975 800.1 77.630 22.610 161.748 -0.22231 0.67410 
1.000 997.0 64.555 22.666 156.251 -0.28642 0.65096 
1.025 997.0 67.156 22.259 150.558 -0.34464 0.61058 
1.050 698.5 70.870 22.253 145.507 -0.39697 0.57774 
1.075 1098.6 77.517 22.469 140.624 -0.44812 0.54600 
1.100 1098.6 79.292 22.270 135.381 -0.49266 0.49925 
1.125 1098.6 72.321 22.124 129.729 -0.53664 0.44599 
1.150 1098.6 78.407 22.047 122.974 -0.58374 0.37871 
1.175 1098.6 65.692 22.413 112.562 -0.65100 0.27048 
1.200 1397.0 64.428 24.302 97.360 -0.74398 0.09610 
1.225 1200.2 68.729 27.766 83.208 -0.81866 -0.09750 
1.250 901.7 70.424 31.573 70.413 -0.84053 -0.29908 
1.275 1701.8 64.550 35.621 56.915 -0.79336 -0.51690 
1.300 2203.5 61.177 39.825 38.500 -0.61238 -0.76988 
1.325 3505.2 60.713 40.003 17.203 -0.29127 -0.94077 
1.350 2305.1 79.068 41.420 346.249 0.23585 -0.96376 
1.375 2501.9 62.204 41.108 323.193 0.59361 -0.79328 
1.400 2000.3 79.689 36.751 300.658 0.82481 -0.48893 
1.425 3898.9 33.993 32.463 287.168 0.86540 -0.26736 
1.450 4000.5 19.969 29.134 274.548 0.84783 -0.06744 
1.475 780.0 85.285 25.256 263.054 0.76610 0.09333 
1.500 551.0 64.259 25.046 254.563 0.73941 0.20418 
1.525 632.0 62.626 23.642 245.665 0.66945 0.30276 
1.550 578.0 74.173 22.978 237.424 0.60572 0.38702 
1.575 602.0 66.741 22.236 229.524 0.53289 0.45475 
1.600 592.0 68.648 21.908 221.320 0.45713 0.51997 
1.625 535.0 74.625 21.554 213.981 0.38196 0.56668 
1.650 535.0 59.823 21.387 205.971 0.29738 0.61052 
1.675 535.0 74.587 21.121 198.491 0.21321 0.63755 
1.700 519.0 70.616 21.185 190.968 0.12822 0.66160 
1.725 510.0 70.386 21.031 183.475 0.04060 0.66869 
1.750 501.0 71.188 20.882 176.052 -0.04586 0.66447 
1.775 492.0 69.536 20.845 168.751 -0.12974 0.65232 
1.800 476.0 68.126 20.778 161.072 -0.21518 0.62747 
1.825 476.0 71.215 20.660 153.618 -0.29339 0.59149 
1.850 476.0 75.223 20.525 146.095 -0.36632 0.54504 
1.875 476.0 77.324 20.528 138.684 -0.43362 0.49330 
1.900 466.0 68.955 20.471 130.620 -0.49739 0.42661 
1.925 466.0 69.912 20.479 122.807 -0.55095 0.35516 
1.950 466.0 68.549 20.585 114.559 -0.59874 0.27360 
1.975 466.0 66.219 20.729 105.579 -0.63775 0.17781 
2.000 466.0 62.225 21.040 96.010 -0.66648 0.07017 
2.025 481.0 68.418 21.521 85.220 -0.68016 -0.05687 
2.050 492.0 66.578 22.150 73.430 -0.66942 -0.19918 
2.075 492.0 63.910 22.802 59.200 -0.61374 -0.36586 
2.100 505.0 67.357 23.507 42.196 -0.49134 -0.54194 
2.125 505.0 60.561 23.802 23.328 -0.29245 -0.67814 
2.150 505.0 59.951 23.446 2.282 -0.02907 -0.72948 
2.175 505.0 65.417 22.312 340.686 0.23234 -0.66292 
2.200 505.0 77.842 20.695 320.499 0.42057 -0.51017 
2.225 484.0 70.805 19.056 302.013 0.52334 -0.32719 
2.250 470.0 70.743 17.659 285.653 0.55667 -0.15598 
2.275 457.0 69.758 16.621 271.050 0.54807 -0.01005 
2.300 447.0 70.346 15.805 257.700 0.51210 0.11165 
2.325 438.0 71.359 15.253 245.033 0.46020 0.21427 
2.350 429.0 69.693 14.952 234.214 0.40442 0.29153 
2.375 429.0 77.671 14.705 224.517 0.34428 0.35013 
2.400 418.0 69.942 14.586 214.998 0.27957 0.39929 
2.425 418.0 77.769 14.492 205.943 0.21199 0.43575 
2.450 403.0 70.117 14.460 197.849 0.14823 0.46032 
2.475 403.0 75.786 14.361 190.311 0.08602 0.47281 
2.500 388.0 71.462 14.308 182.508 0.02096 0.47847 
2.525 388.0 76.227 14.238 175.363 -0.03855 0.47524 
2.550 388.0 71.856 14.062 168.568 -0.09343 0.46203 
2.575 388.0 78.870 13.879 161.830 -0.14524 0.44253 
2.600 388.0 69.815 13.654 154.963 -0.19415 0.41567 
2.625 379.0 68.692 13.415 148.501 -0.23581 0.38483 
2.650 379.0 71.972 13.096 142.100 -0.27113 0.34828 
2.675 387.0 69.560 12.724 135.898 -0.29904 0.30856 
2.700 387.0 60.075 12.250 129.321 -0.32081 0.26278 
2.725 401.0 67.014 11.707 121.927 -0.33726 0.21014 
2.750 401.0 66.626 11.077 114.923 -0.34197 0.15890 
2.775 413.0 67.835 10.425 108.575 -0.33738 0.11338 
2.800 413.0 61.418 9.618 101.308 -0.32306 0.06460 
2.825 423.0 68.539 8.747 94.052 -0.29985 0.02124 
2.850 423.0 61.821 7.697 86.353 -0.26493 -0.01689 
2.875 433.0 68.106 6.570 78.194 -0.22253 -0.04651 
2.900 433.0 65.732 5.415 70.451 -0.17705 -0.06287 
2.925 433.0 64.243 4.235 62.036 -0.13010 -0.06907 
2.950 433.0 65.183 2.897 53.392 -0.08104 -0.06020 
2.975 433.0 64.014 1.635 42.549 -0.03856 -0.04201 
3.000 433.0 65.304 0.431 7.525 -0.00197 -0.01493 
3.025 433.0 67.173 0.816 236.294 0.02368 0.01580 
3.050 433.0 67.716 1.789 219.445 0.03965 0.04819 
3.075 433.0 69.206 2.778 209.964 0.04836 0.08389 
3.100 416.0 70.136 3.700 202.352 0.04898 0.11911 
3.125 416.0 73.526 4.503 196.436 0.04430 0.15016 
3.150 416.0 73.922 5.256 190.639 0.03369 0.17932 
3.175 416.0 73.340 5.877 185.152 0.01829 0.20290 
3.200 416.0 72.564 6.363 180.260 0.00100 0.22030 
3.225 416.0 72.411 6.872 175.623 -0.01813 0.23688 
3.250 416.0 72.241 7.261 170.900 -0.03966 0.24758 
3.275 416.0 70.500 7.628 166.420 -0.06179 0.25579 
3.300 416.0 67.662 7.845 161.882 -0.08410 0.25703 
3.325 416.0 62.878 8.037 157.562 -0.10568 0.25592 
3.350 416.0 59.527 8.136 152.946 -0.12744 0.24954 
3.375 416.0 59.074 8.174 149.026 -0.14486 0.24133 
3.400 416.0 59.338 8.115 145.403 -0.15869 0.23007 
3.425 426.0 69.210 8.041 141.996 -0.17057 0.21829 
3.450 426.0 67.855 7.882 138.993 -0.17825 0.20500 
3.475 426.0 64.416 7.727 136.616 -0.18303 0.19366 
3.500 426.0 61.527 7.558 134.454 -0.18614 0.18262 
3.525 435.0 68.497 7.344 132.374 -0.18732 0.17089 
3.550 435.0 65.523 7.123 130.800 -0.18630 0.16081 
3.575 435.0 63.307 6.939 129.617 -0.18477 0.15295 
3.600 435.0 60.918 6.720 128.676 -0.18144 0.14524 
3.625 445.0 70.520 6.535 128.083 -0.17799 0.13947 
3.650 445.0 68.317 6.351 127.904 -0.17350 0.13508 
3.675 445.0 66.756 6.153 128.049 -0.16783 0.13136 
3.700 445.0 65.199 6.027 128.255 -0.16399 0.12930 
3.725 445.0 63.952 5.891 129.021 -0.15863 0.12855 
3.750 445.0 62.793 5.799 129.747 -0.15459 0.12856 
3.775 445.0 61.277 5.730 130.475 -0.15114 0.12897 
3.800 454.0 68.757 5.712 131.530 -0.14828 0.13132 
3.825 454.0 65.739 5.724 132.478 -0.14638 0.13403 
3.850 454.0 61.827 5.718 133.170 -0.14460 0.13565 
3.875 465.0 68.384 5.760 133.902 -0.14390 0.13849 
3.900 465.0 62.922 5.815 134.862 -0.14289 0.14220 
3.925 474.0 66.877 5.894 135.154 -0.14406 0.14483 
3.950 474.0 62.608 5.959 135.405 -0.14500 0.14707 
3.975 484.0 68.183 6.065 135.613 -0.14698 0.15016 
4.000 484.0 63.956 6.174 135.766 -0.14917 0.15321 
4.025 484.0 59.786 6.228 135.421 -0.15139 0.15363 
4.050 497.0 67.873 6.338 135.193 -0.15464 0.15569 
4.075 497.0 64.253 6.419 135.108 -0.15681 0.15741 
4.100 497.0 59.640 6.461 135.077 -0.15792 0.15834 
4.125 511.0 69.107 6.549 134.043 -0.16289 0.15754 
4.150 511.0 64.940 6.605 133.475 -0.16583 0.15723 
4.175 511.0 60.910 6.676 132.831 -0.16935 0.15699 
4.200 521.0 67.408 6.732 132.454 -0.17178 0.15715 
4.225 521.0 64.866 6.790 132.103 -0.17421 0.15743 
4.250 521.0 61.597 6.822 131.368 -0.17702 0.15589 
4.275 521.0 58.637 6.835 130.321 -0.18017 0.15291 
4.300 521.0 69.780 6.906 129.672 -0.18376 0.15241 
4.325 521.0 73.204 6.824 128.307 -0.18515 0.14626 
4.350 521.0 76.298 6.917 128.418 -0.18734 0.14858 
4.375 521.0 78.021 6.901 127.659 -0.18886 0.14575 
4.400 521.0 79.950 6.915 127.655 -0.18926 0.14604 
4.425 512.0 71.083 6.980 127.829 -0.19054 0.14795 
4.450 512.0 71.945 6.853 125.838 -0.19208 0.13872 
4.475 512.0 71.945 6.903 125.785 -0.19358 0.13953 
4.500 512.0 71.963 6.875 125.521 -0.19347 0.13810 
4.525 512.0 71.156 6.930 125.593 -0.19478 0.13942 
4.550 512.0 71.028 6.866 125.108 -0.19418 0.13652 
4.575 512.0 69.689 6.893 125.214 -0.19468 0.13741 
4.600 512.0 68.739 6.873 125.003 -0.19463 0.13630 
4.625 512.0 66.705 6.891 124.586 -0.19613 0.13523 
4.650 512.0 64.520 6.873 124.345 -0.19620 0.13407 
4.675 512.0 63.693 6.875 124.266 -0.19642 0.13382 
4.700 512.0 62.115 6.909 124.955 -0.19575 0.13684 
4.725 522.0 68.852 6.923 124.513 -0.19720 0.13560 
4.750 522.0 66.219 6.912 124.345 -0.19727 0.13480 
4.775 522.0 64.037 6.950 124.476 -0.19802 0.13598 
4.800 522.0 62.313 6.850 123.511 -0.19748 0.13076 
4.825 533.0 69.669 6.914 123.562 -0.19916 0.13213 
4.850 533.0 67.465 6.999 124.210 -0.20004 0.13599 
4.875 533.0 64.894 6.886 123.062 -0.19951 0.12987 
4.900 533.0 63.612 7.047 124.109 -0.20161 0.13655 
4.925 544.0 71.143 7.027 123.585 -0.20230 0.13433 
4.950 544.0 69.137 7.024 123.069 -0.20342 0.13245 
4.975 544.0 66.263 7.046 122.921 -0.20439 0.13233 
5.000 544.0 65.054 7.129 122.911 -0.20678 0.13383 
5.025 544.0 63.667 7.130 122.849 -0.20694 0.13362 
5.050 544.0 62.013 7.118 122.455 -0.20751 0.13197 
5.075 555.0 68.662 7.129 122.412 -0.20792 0.13201 
5.100 555.0 67.038 7.158 121.879 -0.20997 0.13058 
5.125 555.0 64.517 7.200 122.405 -0.20997 0.13328 
5.150 555.0 61.784 7.252 121.737 -0.21301 0.13175 
5.175 567.0 69.565 7.278 122.482 -0.21201 0.13497 
5.200 567.0 67.575 7.346 122.335 -0.21431 0.13566 
5.225 567.0 64.367 7.263 121.624 -0.21357 0.13152 
5.250 567.0 62.170 7.384 121.902 -0.21641 0.13471 
5.275 578.0 69.148 7.420 121.801 -0.21768 0.13498 
5.300 578.0 66.591 7.293 120.861 -0.21617 0.12917 
5.325 578.0 64.207 7.345 120.838 -0.21772 0.12998 
5.350 578.0 61.894 7.437 121.368 -0.21917 0.13361 
5.375 578.0 59.778 7.405 120.424 -0.22041 0.12944 
5.400 590.0 68.467 7.429 120.759 -0.22035 0.13114 
5.425 590.0 65.860 7.447 120.155 -0.22226 0.12912 
5.450 590.0 63.358 7.482 120.021 -0.22358 0.12919 
5.475 590.0 61.865 7.521 120.513 -0.22358 0.13177 
5.500 590.0 59.417 7.514 119.931 -0.22471 0.12938 
5.525 603.0 67.238 7.520 119.730 -0.22534 0.12869 
5.550 603.0 64.931 7.568 120.311 -0.22542 0.13179 
5.575 603.0 62.114 7.577 119.422 -0.22770 0.12842 
5.600 615.0 68.849 7.684 119.615 -0.23040 0.13097 
5.625 615.0 65.748 7.673 119.544 -0.23024 0.13050 
5.650 615.0 62.425 7.706 119.737 -0.23077 0.13182 
5.675 627.0 69.164 7.647 118.618 -0.23154 0.12633 
5.700 627.0 65.950 7.752 119.626 -0.23235 0.13213 
5.725 627.0 62.304 7.727 118.946 -0.23317 0.12896 
5.750 641.0 69.301 7.680 119.229 -0.23114 0.12934 
5.775 641.0 64.506 7.832 119.520 -0.23495 0.13303 
5.800 641.0 60.850 7.840 118.934 -0.23653 0.13076 
5.825 658.0 69.731 7.826 117.243 -0.23988 0.12351 
5.850 658.0 64.797 7.847 118.085 -0.23864 0.12734 
5.875 658.0 60.404 7.822 117.580 -0.23902 0.12485 
5.900 674.0 66.943 7.790 117.473 -0.23830 0.12391 
5.925 674.0 61.698 7.878 117.323 -0.24126 0.12464 
5.950 687.0 65.134 7.956 117.500 -0.24319 0.12660 
5.975 701.0 69.490 7.999 118.040 -0.24324 0.12955 
6.000 701.0 64.587 7.827 118.211 -0.23778 0.12755 
6.025 701.0 58.938 7.981 115.708 -0.24779 0.11929 
6.050 719.0 65.765 7.980 116.269 -0.24658 0.12170 
6.075 719.0 60.520 7.978 116.102 -0.24687 0.12095 
6.100 736.0 66.416 8.093 116.972 -0.24843 0.12643 
6.125 736.0 61.036 7.969 116.814 -0.24506 0.12386 
6.150 755.0 68.604 7.965 116.677 -0.24525 0.12323 
6.175 755.0 63.214 7.941 114.295 -0.24942 0.11259 
6.200 772.0 68.991 8.064 117.522 -0.24634 0.12836 
6.225 772.0 64.440 7.981 117.428 -0.24409 0.12668 
6.250 772.0 59.482 7.860 113.859 -0.24779 0.10960 
6.275 780.0 59.991 8.073 115.981 -0.24999 0.12183 
6.300 780.0 55.425 7.925 115.820 -0.24584 0.11895 
6.325 780.0 50.948 7.958 115.130 -0.24828 0.11646 
6.350 780.0 46.421 8.080 114.898 -0.25244 0.11717 
6.375 780.0 42.281 8.029 114.059 -0.25258 0.11277 
6.400 780.0 38.301 7.830 113.784 -0.24699 0.10886 
6.425 780.0 33.858 8.000 117.708 -0.24403 0.12816 
6.450 780.0 29.785 8.088 116.486 -0.24933 0.12424 
6.475 780.0 26.416 8.057 117.535 -0.24612 0.12831 
6.500 780.0 22.656 7.716 113.883 -0.24331 0.10773 

# MINIMA:
0.600 379.0 19.969 0.431 2.282 -0.84053 -0.96376 

# MAXIMA:
6.500 4000.5 85.285 41.420 346.249 0.86540 0.70153 

# PEAKS:

# END SPECTRUM


# SPECTRUM:
3

# START TIME:
11:49:25

# END TIME:
11:59:54

# THETA ANGLE:
0.00 ø

# INCIDENCE ANGLE:
65.00 ø

# ACCUMULATION NUMBER:
1

# ELLIPSOMETRIC CONFIGURATION:
0.00 ø :Modulator
-45.00 øAnalyser

# INTEGRATION TIME:
500 ms

# FIRST POINT:
0.6000 eV

# LAST POINT:
6.5000 eV

# INCREMENT:
0.0250 eV

# NUMBER OF POINTS:
237

# DATA:
eV Hv S0 Psi Delta Is Ic 
0.600 2000.3 62.160 14.836 253.568 0.47480 0.14003 
0.625 1701.8 74.613 15.752 252.047 0.49710 0.16107 
0.650 1600.2 74.427 16.526 249.916 0.51223 0.18729 
0.675 1600.2 71.097 16.914 245.298 0.50576 0.23265 
0.700 1403.4 72.364 17.537 241.457 0.50479 0.27456 
0.725 1301.8 72.207 17.362 236.642 0.47577 0.31321 
0.750 1301.8 74.491 17.515 229.921 0.43920 0.36956 
0.775 1200.2 73.824 16.905 224.232 0.38815 0.39870 
0.800 800.1 66.868 16.649 216.940 0.32993 0.43878 
0.825 1098.6 72.970 17.247 208.055 0.26635 0.49977 
0.850 1098.6 69.142 16.716 200.293 0.19108 0.51675 
0.875 800.1 72.872 16.813 191.612 0.11147 0.54244 
0.900 901.7 65.541 16.160 182.910 0.02714 0.53395 
0.925 1003.3 66.601 16.311 173.950 -0.05682 0.53610 
0.950 1104.9 75.409 16.678 165.020 -0.14213 0.53117 
0.975 806.5 72.549 16.958 156.787 -0.21992 0.51280 
1.000 1104.9 74.847 17.088 148.329 -0.29494 0.47808 
1.025 1104.9 76.901 17.454 140.546 -0.36364 0.44186 
1.050 704.9 66.398 17.844 133.150 -0.42560 0.39896 
1.075 1104.9 70.443 18.047 125.728 -0.47823 0.34400 
1.100 1104.9 73.543 18.391 118.573 -0.52585 0.28639 
1.125 1104.9 68.653 18.972 111.222 -0.57319 0.22258 
1.150 1104.9 77.264 19.635 102.935 -0.61692 0.14169 
1.175 1104.9 67.299 21.284 92.651 -0.67575 0.03129 
1.200 1403.4 72.992 24.281 80.172 -0.73868 -0.12797 
1.225 1104.9 67.174 27.974 69.896 -0.77806 -0.28479 
1.250 806.5 71.439 31.490 60.610 -0.77620 -0.43719 
1.275 1403.4 61.866 34.991 51.184 -0.73209 -0.58896 
1.300 1600.2 67.770 38.910 38.877 -0.61353 -0.76097 
1.325 2101.9 60.474 42.050 24.207 -0.40787 -0.90724 
1.350 1505.0 73.986 43.252 3.311 -0.05765 -0.99647 
1.375 2006.6 64.264 43.139 344.618 0.26469 -0.96215 
1.400 1809.8 81.781 40.776 324.240 0.57804 -0.80267 
1.425 3911.6 36.490 36.184 310.922 0.72010 -0.62426 
1.450 3911.6 20.205 32.732 299.563 0.79127 -0.44883 
1.475 780.0 77.881 27.598 288.323 0.77947 -0.25813 
1.500 558.0 62.947 26.532 280.875 0.78496 -0.15081 
1.525 656.0 74.463 24.020 272.432 0.74295 -0.03155 
1.550 586.0 75.498 22.252 264.468 0.69770 0.06757 
1.575 611.0 67.607 20.570 255.725 0.63760 0.16223 
1.600 611.0 80.330 19.146 246.929 0.57011 0.24283 
1.625 539.0 73.704 18.080 238.117 0.50102 0.31165 
1.650 550.0 69.071 17.009 227.861 0.41485 0.37536 
1.675 533.0 68.238 16.150 217.433 0.32479 0.42430 
1.700 522.0 70.456 15.420 206.316 0.22727 0.45951 
1.725 513.0 70.193 15.067 194.713 0.12751 0.48556 
1.750 502.0 68.906 14.868 183.040 0.02630 0.49531 
1.775 502.0 78.714 14.722 171.377 -0.07370 0.48602 
1.800 479.0 69.920 14.997 159.728 -0.17321 0.46895 
1.825 479.0 73.589 15.157 148.322 -0.26506 0.42954 
1.850 470.0 69.382 15.595 137.431 -0.35033 0.38139 
1.875 470.0 72.711 16.153 127.150 -0.42598 0.32275 
1.900 470.0 76.319 16.836 117.263 -0.49285 0.25398 
1.925 462.0 69.582 17.578 107.792 -0.54826 0.17594 
1.950 462.0 70.398 18.439 98.599 -0.59338 0.08973 
1.975 462.0 71.685 19.377 89.746 -0.62597 -0.00278 
2.000 462.0 70.297 20.467 81.008 -0.64715 -0.10241 
2.025 462.0 65.076 21.684 71.953 -0.65289 -0.21274 
2.050 475.0 69.468 23.029 62.711 -0.63992 -0.33013 
2.075 475.0 71.374 24.464 52.625 -0.59910 -0.45764 
2.100 475.0 64.877 25.904 41.366 -0.51940 -0.58985 
2.125 475.0 60.212 27.017 29.224 -0.39516 -0.70635 
2.150 488.0 70.250 27.687 15.418 -0.21877 -0.79326 
2.175 488.0 71.231 27.441 0.686 -0.00979 -0.81791 
2.200 488.0 77.546 26.266 346.388 0.18679 -0.77141 
2.225 475.0 72.187 24.376 332.718 0.34463 -0.66822 
2.250 462.0 68.823 22.055 320.367 0.44398 -0.53606 
2.275 452.0 68.231 19.838 309.211 0.49468 -0.40362 
2.300 452.0 79.383 17.611 298.588 0.50642 -0.27597 
2.325 436.0 70.335 15.524 288.048 0.49037 -0.15978 
2.350 436.0 78.705 13.723 277.932 0.45651 -0.06361 
2.375 424.0 71.315 12.128 267.716 0.41050 0.01637 
2.400 424.0 77.793 10.677 256.514 0.35409 0.08492 
2.425 413.0 71.769 9.431 244.532 0.29188 0.13902 
2.450 404.0 71.398 8.460 231.756 0.22858 0.18016 
2.475 404.0 78.920 7.671 217.892 0.16249 0.20879 
2.500 392.0 69.196 7.085 202.007 0.09172 0.22695 
2.525 392.0 74.562 6.771 186.208 0.02532 0.23280 
2.550 392.0 71.976 6.747 170.563 -0.03826 0.23019 
2.575 392.0 79.267 6.858 156.086 -0.09612 0.21677 
2.600 392.0 72.376 7.174 142.011 -0.15253 0.19531 
2.625 381.0 69.466 7.547 129.689 -0.20040 0.16631 
2.650 381.0 73.277 7.997 118.527 -0.24207 0.13158 
2.675 381.0 60.685 8.465 109.092 -0.27518 0.09525 
2.700 393.0 68.037 8.911 99.531 -0.30182 0.05068 
2.725 393.0 59.623 9.425 90.066 -0.32309 0.00037 
2.750 393.0 60.502 9.854 81.515 -0.33353 -0.04976 
2.775 412.0 70.948 10.163 74.386 -0.33454 -0.09349 
2.800 412.0 66.364 10.449 66.804 -0.32787 -0.14050 
2.825 412.0 62.237 10.658 59.174 -0.31217 -0.18628 
2.850 423.0 69.371 10.733 51.649 -0.28699 -0.22707 
2.875 423.0 64.879 10.697 44.321 -0.25486 -0.26098 
2.900 423.0 62.595 10.553 37.620 -0.21981 -0.28523 
2.925 423.0 59.823 10.291 30.718 -0.17957 -0.30222 
2.950 423.0 60.472 9.870 23.753 -0.13605 -0.30915 
2.975 433.0 68.481 9.324 17.192 -0.09451 -0.30545 
3.000 433.0 68.717 8.660 10.721 -0.05539 -0.29253 
3.025 433.0 68.970 7.950 5.110 -0.02440 -0.27286 
3.050 433.0 69.713 7.181 359.996 0.00002 -0.24804 
3.075 433.0 70.573 6.374 355.449 0.01751 -0.21998 
3.100 416.0 69.596 5.488 351.432 0.02837 -0.18829 
3.125 416.0 72.769 4.681 348.853 0.03145 -0.15959 
3.150 416.0 72.556 3.807 347.563 0.02854 -0.12940 
3.175 416.0 71.991 3.000 348.371 0.02107 -0.10237 
3.200 416.0 71.531 2.279 353.143 0.00949 -0.07892 
3.225 416.0 71.756 1.699 5.417 -0.00559 -0.05899 
3.250 416.0 71.254 1.385 29.043 -0.02346 -0.04225 
3.275 416.0 70.472 1.503 56.683 -0.04381 -0.02879 
3.300 416.0 67.401 1.963 72.162 -0.06519 -0.02098 
3.325 416.0 63.542 2.552 78.710 -0.08725 -0.01742 
3.350 416.0 59.716 3.198 80.837 -0.10997 -0.01774 
3.375 416.0 60.544 3.760 80.056 -0.12890 -0.02260 
3.400 416.0 61.444 4.250 78.421 -0.14479 -0.02966 
3.425 416.0 60.459 4.685 76.130 -0.15805 -0.03902 
3.450 416.0 58.791 5.051 73.502 -0.16816 -0.04981 
3.475 426.0 67.138 5.383 70.975 -0.17658 -0.06089 
3.500 426.0 66.350 5.638 68.491 -0.18193 -0.07169 
3.525 426.0 62.713 5.846 66.133 -0.18532 -0.08200 
3.550 426.0 60.241 6.017 63.670 -0.18686 -0.09248 
3.575 435.0 68.445 6.174 61.518 -0.18796 -0.10198 
3.600 435.0 66.360 6.248 59.645 -0.18670 -0.10934 
3.625 435.0 64.424 6.294 57.770 -0.18437 -0.11624 
3.650 435.0 62.400 6.308 55.848 -0.18075 -0.12261 
3.675 435.0 61.692 6.320 54.287 -0.17766 -0.12773 
3.700 435.0 61.781 6.290 53.000 -0.17395 -0.13108 
3.725 435.0 59.625 6.244 51.830 -0.17001 -0.13364 
3.750 445.0 69.292 6.188 50.971 -0.16651 -0.13497 
3.775 445.0 68.427 6.127 50.391 -0.16351 -0.13531 
3.800 445.0 65.411 6.046 49.694 -0.15975 -0.13551 
3.825 445.0 62.665 6.001 49.313 -0.15768 -0.13557 
3.850 445.0 59.461 5.902 49.459 -0.15546 -0.13297 
3.875 460.0 70.575 5.826 49.561 -0.15372 -0.13100 
3.900 460.0 64.718 5.807 49.635 -0.15339 -0.13038 
3.925 469.0 68.260 5.697 50.439 -0.15231 -0.12583 
3.950 469.0 63.849 5.682 50.818 -0.15274 -0.12450 
3.975 478.0 69.114 5.652 51.506 -0.15343 -0.12201 
4.000 478.0 64.033 5.682 52.188 -0.15567 -0.12080 
4.025 478.0 60.440 5.652 53.044 -0.15662 -0.11784 
4.050 489.0 67.773 5.667 53.836 -0.15866 -0.11597 
4.075 489.0 63.736 5.698 54.467 -0.16079 -0.11483 
4.100 489.0 60.519 5.715 55.005 -0.16233 -0.11364 
4.125 501.0 67.304 5.768 56.125 -0.16603 -0.11146 
4.150 501.0 62.995 5.805 56.274 -0.16739 -0.11175 
4.175 501.0 59.958 5.917 56.974 -0.17194 -0.11177 
4.200 513.0 68.941 5.972 56.931 -0.17344 -0.11293 
4.225 513.0 65.004 6.056 57.733 -0.17742 -0.11202 
4.250 513.0 62.992 6.137 57.719 -0.17973 -0.11354 
4.275 513.0 60.547 6.206 58.231 -0.18274 -0.11317 
4.300 513.0 60.973 6.309 58.500 -0.18627 -0.11415 
4.325 513.0 63.626 6.368 58.852 -0.18867 -0.11403 
4.350 513.0 66.093 6.465 57.781 -0.18932 -0.11931 
4.375 513.0 69.305 6.489 58.852 -0.19219 -0.11616 
4.400 513.0 70.497 6.484 59.252 -0.19286 -0.11473 
4.425 513.0 71.609 6.563 58.861 -0.19439 -0.11744 
4.450 513.0 73.266 6.628 58.623 -0.19577 -0.11939 
4.475 513.0 73.731 6.685 58.114 -0.19634 -0.12214 
4.500 513.0 72.460 6.740 57.680 -0.19699 -0.12462 
4.525 513.0 72.720 6.779 57.670 -0.19809 -0.12537 
4.550 513.0 72.390 6.792 57.785 -0.19870 -0.12520 
4.575 513.0 71.255 6.872 57.312 -0.19995 -0.12831 
4.600 513.0 69.472 6.867 57.028 -0.19918 -0.12921 
4.625 513.0 68.126 6.851 57.202 -0.19910 -0.12830 
4.650 513.0 66.622 6.912 57.059 -0.20052 -0.12993 
4.675 513.0 65.037 6.911 57.210 -0.20084 -0.12939 
4.700 513.0 63.474 6.930 57.577 -0.20220 -0.12843 
4.725 513.0 61.842 6.955 56.927 -0.20145 -0.13119 
4.750 513.0 60.144 6.999 56.975 -0.20282 -0.13183 
4.775 525.0 67.686 7.012 56.906 -0.20301 -0.13231 
4.800 525.0 66.459 7.032 56.696 -0.20309 -0.13343 
4.825 525.0 63.694 7.043 56.895 -0.20386 -0.13292 
4.850 525.0 62.014 7.061 57.222 -0.20513 -0.13208 
4.875 537.0 70.085 7.005 57.493 -0.20417 -0.13011 
4.900 537.0 68.033 7.090 57.231 -0.20600 -0.13260 
4.925 537.0 65.801 7.107 57.246 -0.20652 -0.13285 
4.950 537.0 64.083 7.186 57.509 -0.20937 -0.13333 
4.975 537.0 61.932 7.157 57.620 -0.20880 -0.13241 
5.000 537.0 60.375 7.201 57.611 -0.21002 -0.13323 
5.025 537.0 59.226 7.208 57.635 -0.21028 -0.13327 
5.050 551.0 69.914 7.280 57.632 -0.21234 -0.13459 
5.075 551.0 68.611 7.320 57.755 -0.21377 -0.13485 
5.100 551.0 65.191 7.272 58.406 -0.21391 -0.13157 
5.125 551.0 63.250 7.299 58.483 -0.21486 -0.13176 
5.150 551.0 60.180 7.351 58.241 -0.21579 -0.13359 
5.175 563.0 69.204 7.394 58.361 -0.21731 -0.13389 
5.200 563.0 66.842 7.431 58.086 -0.21772 -0.13559 
5.225 563.0 63.956 7.430 58.980 -0.21979 -0.13217 
5.250 563.0 62.217 7.534 58.319 -0.22122 -0.13652 
5.275 563.0 59.190 7.496 58.663 -0.22095 -0.13454 
5.300 576.0 68.128 7.479 58.872 -0.22096 -0.13344 
5.325 576.0 65.922 7.509 59.255 -0.22270 -0.13247 
5.350 576.0 64.625 7.592 58.914 -0.22431 -0.13524 
5.375 576.0 61.720 7.567 59.435 -0.22480 -0.13276 
5.400 576.0 59.957 7.580 59.564 -0.22549 -0.13248 
5.425 589.0 69.106 7.651 58.825 -0.22580 -0.13662 
5.450 589.0 67.606 7.736 58.747 -0.22806 -0.13841 
5.475 589.0 65.341 7.743 59.030 -0.22893 -0.13739 
5.500 589.0 62.739 7.704 59.571 -0.22908 -0.13456 
5.525 601.0 70.502 7.727 59.221 -0.22893 -0.13636 
5.550 601.0 67.182 7.816 59.413 -0.23196 -0.13711 
5.575 601.0 65.282 7.808 59.671 -0.23235 -0.13593 
5.600 601.0 62.070 7.852 59.139 -0.23235 -0.13884 
5.625 613.0 69.247 7.881 59.948 -0.23513 -0.13604 
5.650 613.0 65.834 7.902 59.710 -0.23517 -0.13736 
5.675 613.0 63.422 7.957 59.812 -0.23702 -0.13788 
5.700 625.0 69.399 7.950 60.295 -0.23797 -0.13576 
5.725 625.0 65.972 7.971 60.273 -0.23851 -0.13619 
5.750 625.0 61.994 7.903 60.722 -0.23758 -0.13320 
5.775 625.0 58.080 7.991 60.328 -0.23922 -0.13629 
5.800 643.0 67.952 8.120 60.318 -0.24296 -0.13848 
5.825 643.0 63.916 8.147 59.624 -0.24204 -0.14187 
5.850 643.0 59.724 8.220 59.600 -0.24410 -0.14321 
5.875 658.0 65.188 8.115 59.917 -0.24184 -0.14009 
5.900 658.0 61.477 8.106 60.730 -0.24356 -0.13651 
5.925 674.0 67.884 8.235 59.889 -0.24526 -0.14223 
5.950 674.0 62.704 8.233 60.020 -0.24552 -0.14163 
5.975 690.0 69.150 8.237 60.924 -0.24785 -0.13782 
6.000 690.0 63.612 8.306 60.020 -0.24765 -0.14287 
6.025 704.0 67.912 8.332 60.126 -0.24866 -0.14283 
6.050 704.0 63.221 8.335 60.809 -0.25043 -0.13991 
6.075 704.0 58.187 8.356 60.729 -0.25086 -0.14061 
6.100 727.0 68.024 8.446 59.952 -0.25152 -0.14549 
6.125 727.0 62.874 8.387 60.043 -0.25003 -0.14410 
6.150 741.0 67.479 8.469 60.743 -0.25419 -0.14239 
6.175 741.0 62.600 8.624 59.385 -0.25518 -0.15101 
6.200 761.0 70.891 8.619 59.760 -0.25601 -0.14924 
6.225 761.0 65.271 8.444 59.254 -0.24968 -0.14852 
6.250 761.0 61.133 8.609 60.960 -0.25880 -0.14369 
6.275 780.0 70.131 8.645 61.691 -0.26166 -0.14094 
6.300 780.0 63.298 8.743 61.882 -0.26500 -0.14160 
6.325 780.0 57.617 8.757 60.599 -0.26218 -0.14773 
6.350 780.0 53.324 8.306 60.754 -0.24945 -0.13968 
6.375 780.0 48.778 8.704 61.237 -0.26225 -0.14395 
6.400 780.0 44.059 8.435 62.397 -0.25717 -0.13446 
6.425 780.0 39.114 8.653 60.871 -0.25984 -0.14479 
6.450 780.0 34.157 8.626 59.106 -0.25449 -0.15227 
6.475 780.0 30.726 8.600 59.299 -0.25427 -0.15098 
6.500 780.0 26.271 8.532 60.669 -0.25583 -0.14375 

# MINIMA:
0.600 381.0 20.205 1.385 0.686 -0.77806 -0.99647 

# MAXIMA:
6.500 3911.6 81.781 43.252 359.996 0.79127 0.54244 

# PEAKS:

# END SPECTRUM


# SPECTRUM:
4

# START TIME:
12:00:42

# END TIME:
12:11:13

# THETA ANGLE:
0.00 ø

# INCIDENCE ANGLE:
70.00 ø

# ACCUMULATION NUMBER:
1

# ELLIPSOMETRIC CONFIGURATION:
0.00 ø :Modulator
-45.00 øAnalyser

# INTEGRATION TIME:
500 ms

# FIRST POINT:
0.6000 eV

# LAST POINT:
6.5000 eV

# INCREMENT:
0.0250 eV

# NUMBER OF POINTS:
237

# DATA:
eV Hv S0 Psi Delta Is Ic 
0.600 2597.2 65.919 14.347 292.686 0.44300 -0.18518 
0.625 2095.5 77.104 15.194 289.117 0.47796 -0.16566 
0.650 1898.7 77.036 16.034 284.349 0.51437 -0.13158 
0.675 1898.7 77.834 15.742 280.999 0.51267 -0.09964 
0.700 1498.6 71.648 15.930 275.637 0.52529 -0.05185 
0.725 1397.0 73.923 15.426 269.872 0.51283 0.00114 
0.750 1397.0 75.781 14.597 263.765 0.48488 0.05298 
0.775 1295.4 78.638 13.545 256.986 0.44371 0.10256 
0.800 895.4 74.346 12.302 249.305 0.38947 0.14713 
0.825 1193.8 76.110 11.288 238.244 0.32644 0.20206 
0.850 1193.8 72.415 10.353 225.149 0.25066 0.24936 
0.875 793.8 61.559 9.250 211.084 0.16382 0.27173 
0.900 990.6 73.312 8.423 194.534 0.07273 0.28052 
0.925 1092.2 71.895 8.442 176.074 -0.01988 0.28975 
0.950 1092.2 63.727 8.914 158.254 -0.11343 0.28438 
0.975 895.4 77.664 9.727 141.757 -0.20615 0.26157 
1.000 1092.2 62.497 10.791 128.059 -0.28961 0.22675 
1.025 1092.2 64.068 12.075 117.051 -0.36436 0.18606 
1.050 793.8 78.595 13.232 107.124 -0.42589 0.13121 
1.075 1193.8 76.256 14.605 99.018 -0.48199 0.07649 
1.100 1193.8 78.899 15.918 91.186 -0.52737 0.01092 
1.125 1193.8 78.313 17.439 84.174 -0.56886 -0.05804 
1.150 1092.2 68.381 19.299 77.135 -0.60819 -0.13890 
1.175 1092.2 66.414 21.986 69.295 -0.64946 -0.24548 
1.200 1289.1 63.793 25.700 61.765 -0.68853 -0.36973 
1.225 1092.2 80.004 29.200 55.137 -0.69886 -0.48686 
1.250 698.5 59.987 32.311 49.276 -0.68473 -0.58946 
1.275 1295.4 70.495 35.397 42.723 -0.64070 -0.69376 
1.300 1295.4 64.833 38.786 34.411 -0.55188 -0.80568 
1.325 1593.9 64.936 41.453 24.710 -0.41482 -0.90148 
1.350 1193.8 72.080 44.329 10.758 -0.18662 -0.98215 
1.375 1695.5 72.858 43.829 357.260 0.04776 -0.99802 
1.400 1498.6 81.738 43.356 341.090 0.32354 -0.94447 
1.425 4000.5 47.672 38.356 329.522 0.49362 -0.83875 
1.450 4000.5 23.842 36.050 318.837 0.62634 -0.71640 
1.475 780.0 69.638 31.575 311.136 0.67195 -0.58694 
1.500 576.0 71.214 30.271 304.098 0.72102 -0.48813 
1.525 662.0 70.631 27.101 298.325 0.71396 -0.38484 
1.550 587.0 65.672 24.699 292.083 0.70355 -0.28544 
1.575 622.0 67.318 22.106 285.676 0.67138 -0.18841 
1.600 622.0 80.327 19.751 279.748 0.62691 -0.10770 
1.625 536.0 61.470 17.544 271.960 0.57451 -0.01966 
1.650 558.0 66.169 15.182 263.394 0.50215 0.05815 
1.675 545.0 70.906 13.079 253.277 0.42222 0.12686 
1.700 530.0 69.101 10.856 241.412 0.32485 0.17702 
1.725 519.0 68.644 9.068 225.080 0.22041 0.21980 
1.750 508.0 67.698 7.728 204.659 0.11118 0.24219 
1.775 508.0 75.052 7.144 179.605 -0.00170 0.24679 
1.800 487.0 72.716 7.461 153.119 -0.11644 0.22969 
1.825 487.0 77.349 8.594 132.509 -0.21785 0.19968 
1.850 475.0 70.164 10.255 115.787 -0.31549 0.15242 
1.875 475.0 73.484 12.040 103.360 -0.39698 0.09428 
1.900 464.0 67.340 13.965 92.655 -0.46790 0.02170 
1.925 464.0 71.800 15.827 84.045 -0.52194 -0.05445 
1.950 464.0 73.761 17.673 76.313 -0.56209 -0.13689 
1.975 464.0 77.667 19.538 69.127 -0.58898 -0.22459 
2.000 454.0 68.854 21.265 62.591 -0.60008 -0.31117 
2.025 454.0 66.225 23.078 56.161 -0.59905 -0.40163 
2.050 454.0 60.514 24.780 49.922 -0.58235 -0.49001 
2.075 454.0 67.378 26.573 43.041 -0.54613 -0.58481 
2.100 454.0 64.420 28.260 35.676 -0.48643 -0.67754 
2.125 454.0 64.373 29.767 27.718 -0.40091 -0.76303 
2.150 463.0 70.772 30.972 18.732 -0.28340 -0.83574 
2.175 463.0 70.582 31.426 8.984 -0.13896 -0.87891 
2.200 463.0 70.669 31.130 359.055 0.01459 -0.88494 
2.225 463.0 77.421 29.986 349.319 0.16046 -0.85078 
2.250 450.0 70.660 28.208 340.512 0.27792 -0.78535 
2.275 450.0 78.651 26.022 332.767 0.36082 -0.70109 
2.300 435.0 68.467 23.583 325.777 0.41242 -0.60635 
2.325 435.0 76.306 21.025 319.515 0.43486 -0.50942 
2.350 424.0 70.333 18.593 314.260 0.43285 -0.42182 
2.375 424.0 75.892 16.239 309.750 0.41284 -0.34336 
2.400 415.0 71.565 13.848 305.724 0.37733 -0.27138 
2.425 415.0 76.950 11.497 302.192 0.33059 -0.20812 
2.450 399.0 69.504 9.327 299.743 0.27771 -0.15868 
2.475 399.0 74.179 7.241 298.751 0.21924 -0.12028 
2.500 399.0 68.487 5.107 300.964 0.15205 -0.09123 
2.525 399.0 74.556 3.272 310.837 0.08621 -0.07451 
2.550 399.0 71.076 2.050 342.816 0.02112 -0.06831 
2.575 399.0 81.123 2.333 29.354 -0.03987 -0.07090 
2.600 399.0 72.227 3.788 49.627 -0.10043 -0.08539 
2.625 386.0 70.657 5.373 55.107 -0.15295 -0.10667 
2.650 386.0 76.388 6.871 56.232 -0.19748 -0.13204 
2.675 386.0 64.257 8.337 54.749 -0.23430 -0.16560 
2.700 394.0 67.938 9.797 52.329 -0.26544 -0.20494 
2.725 402.0 69.411 11.167 49.501 -0.28896 -0.24678 
2.750 402.0 71.138 12.309 46.453 -0.30194 -0.28700 
2.775 402.0 60.598 13.329 43.129 -0.30673 -0.32745 
2.800 412.0 68.892 14.234 39.737 -0.30473 -0.36656 
2.825 412.0 67.787 15.018 35.987 -0.29411 -0.40501 
2.850 412.0 62.089 15.737 32.083 -0.27732 -0.44238 
2.875 422.0 69.544 16.203 28.224 -0.25344 -0.47219 
2.900 422.0 66.364 16.589 24.442 -0.22643 -0.49820 
2.925 422.0 65.618 16.767 20.724 -0.19549 -0.51669 
2.950 422.0 64.835 16.824 16.831 -0.16043 -0.53035 
2.975 422.0 60.866 16.679 13.197 -0.12553 -0.53533 
3.000 422.0 62.142 16.391 9.667 -0.09092 -0.53375 
3.025 422.0 61.480 15.957 6.589 -0.06066 -0.52516 
3.050 431.0 69.328 15.434 3.932 -0.03518 -0.51186 
3.075 431.0 71.282 14.808 1.712 -0.01477 -0.49395 
3.100 414.0 70.346 14.114 359.883 0.00096 -0.47299 
3.125 414.0 70.837 13.394 358.666 0.01049 -0.45056 
3.150 414.0 70.805 12.641 358.047 0.01455 -0.42682 
3.175 414.0 68.713 11.891 358.063 0.01363 -0.40302 
3.200 414.0 68.194 11.229 358.778 0.00815 -0.38191 
3.225 414.0 69.998 10.637 0.286 -0.00181 -0.36282 
3.250 414.0 69.217 10.153 2.295 -0.01390 -0.34674 
3.275 414.0 69.414 9.729 5.287 -0.03069 -0.33170 
3.300 414.0 65.975 9.444 8.643 -0.04865 -0.32005 
3.325 414.0 62.543 9.329 12.347 -0.06841 -0.31252 
3.350 423.0 68.537 9.390 15.970 -0.08857 -0.30950 
3.375 423.0 68.778 9.572 18.976 -0.10663 -0.31011 
3.400 423.0 71.736 9.820 21.406 -0.12267 -0.31293 
3.425 423.0 70.611 10.138 23.060 -0.13574 -0.31886 
3.450 423.0 70.299 10.481 24.352 -0.14752 -0.32593 
3.475 423.0 68.801 10.834 25.097 -0.15661 -0.33438 
3.500 423.0 67.454 11.116 25.488 -0.16281 -0.34153 
3.525 423.0 66.036 11.445 25.629 -0.16824 -0.35068 
3.550 423.0 61.841 11.723 25.533 -0.17151 -0.35904 
3.575 423.0 59.901 11.926 25.398 -0.17344 -0.36529 
3.600 423.0 60.814 12.152 25.020 -0.17406 -0.37294 
3.625 423.0 57.399 12.331 24.592 -0.17365 -0.37942 
3.650 432.0 68.035 12.469 24.000 -0.17150 -0.38519 
3.675 432.0 66.674 12.614 23.488 -0.16987 -0.39091 
3.700 432.0 65.350 12.697 22.999 -0.16756 -0.39476 
3.725 432.0 63.918 12.774 22.448 -0.16468 -0.39859 
3.750 432.0 63.093 12.803 21.935 -0.16144 -0.40088 
3.775 432.0 61.369 12.818 21.553 -0.15894 -0.40239 
3.800 432.0 59.862 12.807 21.166 -0.15610 -0.40315 
3.825 443.0 68.271 12.797 20.846 -0.15374 -0.40373 
3.850 443.0 66.515 12.741 20.594 -0.15133 -0.40273 
3.875 443.0 59.906 12.730 20.551 -0.15091 -0.40253 
3.900 454.0 66.745 12.686 20.327 -0.14884 -0.40180 
3.925 454.0 62.934 12.632 20.371 -0.14856 -0.40009 
3.950 465.0 69.602 12.578 20.373 -0.14799 -0.39851 
3.975 465.0 66.167 12.500 20.418 -0.14743 -0.39605 
4.000 465.0 61.620 12.488 20.581 -0.14843 -0.39528 
4.025 476.0 66.919 12.439 20.661 -0.14843 -0.39363 
4.050 476.0 64.589 12.454 21.034 -0.15117 -0.39311 
4.075 476.0 61.821 12.433 21.401 -0.15344 -0.39151 
4.100 488.0 70.095 12.396 21.511 -0.15376 -0.39011 
4.125 488.0 64.779 12.367 21.908 -0.15611 -0.38818 
4.150 488.0 60.227 12.419 22.167 -0.15849 -0.38901 
4.175 488.0 58.437 12.355 22.700 -0.16132 -0.38564 
4.200 501.0 68.658 12.384 22.906 -0.16306 -0.38591 
4.225 501.0 66.263 12.452 23.203 -0.16592 -0.38705 
4.250 501.0 62.973 12.490 23.453 -0.16807 -0.38740 
4.275 501.0 61.171 12.511 23.582 -0.16921 -0.38763 
4.300 522.0 66.688 12.538 24.275 -0.17424 -0.38634 
4.325 522.0 70.222 12.552 24.457 -0.17564 -0.38619 
4.350 522.0 73.983 12.617 24.639 -0.17774 -0.38751 
4.375 522.0 76.669 12.662 24.788 -0.17934 -0.38832 
4.400 522.0 79.111 12.734 24.897 -0.18103 -0.39005 
4.425 522.0 80.372 12.743 25.092 -0.18247 -0.38968 
4.450 513.0 71.148 12.791 25.162 -0.18359 -0.39082 
4.475 513.0 72.172 12.793 25.348 -0.18488 -0.39028 
4.500 513.0 72.298 12.858 25.448 -0.18645 -0.39181 
4.525 513.0 72.348 13.002 25.200 -0.18668 -0.39671 
4.550 513.0 70.051 12.995 25.325 -0.18744 -0.39609 
4.575 513.0 71.210 13.047 25.371 -0.18846 -0.39741 
4.600 513.0 69.557 13.065 25.264 -0.18796 -0.39829 
4.625 513.0 69.359 13.031 25.500 -0.18915 -0.39656 
4.650 513.0 67.900 13.093 25.411 -0.18936 -0.39860 
4.675 513.0 66.534 13.146 25.498 -0.19067 -0.39980 
4.700 513.0 65.337 13.135 25.505 -0.19059 -0.39948 
4.725 513.0 61.143 13.135 25.590 -0.19117 -0.39920 
4.750 513.0 61.481 13.184 25.526 -0.19139 -0.40078 
4.775 524.0 68.651 13.173 25.666 -0.19222 -0.40001 
4.800 524.0 66.568 13.268 25.529 -0.19254 -0.40315 
4.825 524.0 64.149 13.230 25.739 -0.19350 -0.40136 
4.850 524.0 61.849 13.212 25.767 -0.19345 -0.40077 
4.875 524.0 59.968 13.277 25.732 -0.19408 -0.40270 
4.900 537.0 70.849 13.300 25.794 -0.19483 -0.40315 
4.925 537.0 68.418 13.262 25.987 -0.19567 -0.40143 
4.950 537.0 68.706 13.326 26.087 -0.19725 -0.40287 
4.975 537.0 66.738 13.319 26.101 -0.19725 -0.40262 
5.000 537.0 64.313 13.234 26.406 -0.19822 -0.39920 
5.025 537.0 62.684 13.347 26.350 -0.19939 -0.40255 
5.050 537.0 61.058 13.319 26.521 -0.20020 -0.40117 
5.075 537.0 59.706 13.394 26.389 -0.20032 -0.40374 
5.100 553.0 69.140 13.330 26.574 -0.20073 -0.40131 
5.125 553.0 68.499 13.418 26.526 -0.20161 -0.40391 
5.150 553.0 66.122 13.401 26.719 -0.20273 -0.40276 
5.175 553.0 65.352 13.441 26.757 -0.20356 -0.40373 
5.200 553.0 62.846 13.483 26.905 -0.20520 -0.40439 
5.225 553.0 59.548 13.376 27.001 -0.20437 -0.40107 
5.250 572.0 73.247 13.447 27.093 -0.20601 -0.40271 
5.275 572.0 72.450 13.531 27.310 -0.20873 -0.40424 
5.300 572.0 70.241 13.544 27.356 -0.20924 -0.40444 
5.325 572.0 68.100 13.510 27.472 -0.20958 -0.40308 
5.350 572.0 67.215 13.507 27.660 -0.21086 -0.40230 
5.375 572.0 64.196 13.533 27.530 -0.21031 -0.40349 
5.400 572.0 63.519 13.554 27.584 -0.21100 -0.40387 
5.425 572.0 61.305 13.569 27.905 -0.21348 -0.40310 
5.450 584.0 69.573 13.621 27.924 -0.21437 -0.40447 
5.475 584.0 67.729 13.631 28.015 -0.21515 -0.40440 
5.500 584.0 64.133 13.650 28.163 -0.21648 -0.40435 
5.525 584.0 62.786 13.648 28.353 -0.21779 -0.40357 
5.550 584.0 60.186 13.697 28.243 -0.21773 -0.40533 
5.575 597.0 67.802 13.700 28.522 -0.21975 -0.40435 
5.600 597.0 63.439 13.749 28.134 -0.21772 -0.40716 
5.625 597.0 64.111 13.741 28.384 -0.21937 -0.40600 
5.650 611.0 71.736 13.718 28.792 -0.22192 -0.40381 
5.675 611.0 67.627 13.816 28.583 -0.22189 -0.40727 
5.700 611.0 64.300 13.796 28.786 -0.22303 -0.40592 
5.725 611.0 62.168 13.783 28.683 -0.22212 -0.40598 
5.750 611.0 59.947 13.892 28.839 -0.22485 -0.40834 
5.775 628.0 70.818 13.911 28.972 -0.22608 -0.40833 
5.800 628.0 64.113 13.926 29.181 -0.22778 -0.40789 
5.825 628.0 60.235 13.878 29.334 -0.22815 -0.40599 
5.850 643.0 67.493 13.919 29.317 -0.22866 -0.40718 
5.875 643.0 62.379 13.974 29.273 -0.22916 -0.40881 
5.900 660.0 72.316 14.008 29.705 -0.23275 -0.40798 
5.925 660.0 66.220 14.051 29.372 -0.23103 -0.41048 
5.950 660.0 60.946 13.969 29.735 -0.23239 -0.40684 
5.975 675.0 67.478 14.101 29.571 -0.23322 -0.41102 
6.000 675.0 61.054 14.065 29.442 -0.23175 -0.41060 
6.025 689.0 65.767 13.960 29.923 -0.23357 -0.40581 
6.050 689.0 62.109 14.110 29.611 -0.23364 -0.41110 
6.075 705.0 71.050 14.155 29.739 -0.23525 -0.41179 
6.100 705.0 64.106 14.219 29.885 -0.23728 -0.41289 
6.125 705.0 58.798 14.003 30.008 -0.23484 -0.40663 
6.150 723.0 66.365 14.079 30.236 -0.23763 -0.40770 
6.175 723.0 59.804 14.306 29.908 -0.23877 -0.41511 
6.200 741.0 69.434 14.380 29.615 -0.23777 -0.41828 
6.225 741.0 63.279 14.220 30.367 -0.24076 -0.41091 
6.250 741.0 59.294 14.395 29.988 -0.24072 -0.41713 
6.275 760.0 65.113 14.172 30.264 -0.23927 -0.41006 
6.300 760.0 61.190 14.301 30.365 -0.24200 -0.41305 
6.325 780.0 67.456 14.233 29.572 -0.23523 -0.41454 
6.350 780.0 63.781 14.273 30.352 -0.24148 -0.41237 
6.375 780.0 57.488 14.478 31.020 -0.24949 -0.41489 
6.400 780.0 51.676 14.241 29.684 -0.23617 -0.41431 
6.425 780.0 47.104 14.255 30.342 -0.24112 -0.41192 
6.450 780.0 41.702 14.331 30.492 -0.24338 -0.41330 
6.475 780.0 36.186 14.167 30.140 -0.23832 -0.41045 
6.500 780.0 31.664 14.587 30.919 -0.25047 -0.41819 

# MINIMA:
0.600 386.0 23.842 2.050 0.286 -0.69886 -0.99802 

# MAXIMA:
6.500 4000.5 81.738 44.329 359.883 0.72102 0.28975 

# PEAKS:

# END SPECTRUM


# SPECTRUM:
5

# START TIME:
12:12:02

# END TIME:
12:22:39

# THETA ANGLE:
0.00 ø

# INCIDENCE ANGLE:
75.00 ø

# ACCUMULATION NUMBER:
1

# ELLIPSOMETRIC CONFIGURATION:
0.00 ø :Modulator
-45.00 øAnalyser

# INTEGRATION TIME:
500 ms

# FIRST POINT:
0.6000 eV

# LAST POINT:
6.5000 eV

# INCREMENT:
0.0250 eV

# NUMBER OF POINTS:
237

# DATA:
eV Hv S0 Psi Delta Is Ic 
0.600 3200.4 59.154 19.290 325.186 0.35603 -0.51199 
0.625 2902.0 81.534 19.648 321.281 0.39615 -0.49414 
0.650 2501.9 78.503 19.798 317.834 0.42785 -0.47241 
0.675 2501.9 78.233 19.564 316.032 0.43812 -0.45420 
0.700 1803.4 77.329 19.063 311.283 0.46395 -0.40735 
0.725 1505.0 66.635 18.186 308.283 0.46551 -0.36742 
0.750 1505.0 73.967 16.958 305.518 0.45415 -0.32416 
0.775 1403.4 78.370 15.385 302.282 0.43250 -0.27323 
0.800 901.7 63.263 13.504 300.298 0.39210 -0.22911 
0.825 1200.2 64.399 11.408 297.591 0.34366 -0.17959 
0.850 1200.2 62.125 8.975 295.894 0.27724 -0.13458 
0.875 901.7 69.359 6.410 297.061 0.19759 -0.10094 
0.900 1003.3 62.380 3.867 305.304 0.10983 -0.07778 
0.925 1104.9 62.003 1.724 345.870 0.01468 -0.05833 
0.950 1206.5 66.774 3.121 47.907 -0.08070 -0.07290 
0.975 908.1 70.178 5.624 62.808 -0.17349 -0.08913 
1.000 1206.5 67.680 8.264 64.023 -0.25576 -0.12461 
1.025 1206.5 70.143 10.749 63.858 -0.32899 -0.16147 
1.050 806.5 71.486 13.095 61.199 -0.38677 -0.21263 
1.075 1206.5 68.735 15.284 58.829 -0.43515 -0.26323 
1.100 1206.5 72.646 17.439 56.013 -0.47413 -0.31965 
1.125 1206.5 70.874 19.697 52.945 -0.50649 -0.38243 
1.150 1104.9 68.115 22.075 50.179 -0.53498 -0.44607 
1.175 1104.9 65.843 25.165 47.094 -0.56381 -0.52403 
1.200 1301.8 69.798 28.670 44.071 -0.58557 -0.60488 
1.225 1003.3 75.306 31.704 40.604 -0.58198 -0.67892 
1.250 704.9 80.220 34.302 36.912 -0.55920 -0.74446 
1.275 1104.9 63.330 36.647 32.703 -0.51748 -0.80596 
1.300 1104.9 62.956 39.376 27.376 -0.45099 -0.87096 
1.325 1403.4 70.437 41.553 21.111 -0.35758 -0.92614 
1.350 1003.3 76.721 43.622 12.097 -0.20932 -0.97666 
1.375 1403.4 64.014 45.000 2.767 -0.04830 -0.99921 
1.400 1206.5 72.886 45.000 351.540 0.14714 -0.98928 
1.425 3708.4 62.200 40.034 342.721 0.29257 -0.94056 
1.450 3905.3 32.367 38.855 334.183 0.42552 -0.87956 
1.475 780.0 70.682 35.967 327.942 0.50461 -0.80573 
1.500 568.0 61.943 34.746 322.610 0.56875 -0.74416 
1.525 673.0 76.968 31.731 318.366 0.59437 -0.66866 
1.550 589.0 62.081 29.340 314.643 0.60782 -0.60029 
1.575 626.0 64.226 26.797 311.273 0.60489 -0.53092 
1.600 626.0 73.616 24.040 307.827 0.58772 -0.45633 
1.625 560.0 75.423 21.515 304.249 0.56405 -0.38404 
1.650 572.0 71.133 18.617 301.079 0.51822 -0.31236 
1.675 555.0 69.587 15.601 297.944 0.45766 -0.24277 
1.700 541.0 69.902 12.532 296.344 0.37964 -0.18799 
1.725 532.0 71.711 9.223 295.743 0.28501 -0.13743 
1.750 516.0 64.485 5.940 300.075 0.17813 -0.10316 
1.775 516.0 75.732 3.098 323.655 0.06396 -0.08692 
1.800 490.0 65.794 3.034 30.440 -0.05355 -0.09113 
1.825 490.0 72.447 5.722 54.427 -0.16138 -0.11542 
1.850 481.0 69.897 8.845 59.424 -0.26162 -0.15457 
1.875 481.0 75.390 11.836 59.086 -0.34446 -0.20627 
1.900 468.0 67.280 14.727 57.084 -0.41278 -0.26720 
1.925 468.0 73.851 17.377 54.153 -0.46208 -0.33384 
1.950 459.0 69.551 19.812 50.865 -0.49469 -0.40252 
1.975 459.0 75.674 22.097 47.432 -0.51339 -0.47155 
2.000 448.0 68.372 24.157 43.889 -0.51773 -0.53821 
2.025 448.0 68.963 26.161 40.063 -0.50940 -0.60572 
2.050 448.0 66.306 27.971 36.315 -0.49065 -0.66756 
2.075 448.0 73.252 29.726 32.107 -0.45773 -0.72949 
2.100 440.0 68.197 31.380 27.521 -0.41083 -0.78849 
2.125 440.0 67.944 32.752 22.581 -0.34942 -0.84024 
2.150 440.0 66.399 34.024 16.865 -0.26909 -0.88761 
2.175 440.0 68.408 34.822 10.611 -0.17264 -0.92151 
2.200 440.0 70.707 35.044 4.061 -0.06659 -0.93786 
2.225 440.0 74.469 34.561 357.353 0.04315 -0.93334 
2.250 440.0 79.636 33.519 351.067 0.14297 -0.90960 
2.275 428.0 69.683 32.005 345.636 0.22300 -0.87078 
2.300 428.0 76.171 30.058 340.849 0.28444 -0.81906 
2.325 420.0 71.514 27.936 336.909 0.32466 -0.76146 
2.350 420.0 78.591 25.823 334.025 0.34346 -0.70497 
2.375 408.0 67.938 23.687 331.903 0.34653 -0.64907 
2.400 408.0 72.459 21.478 330.632 0.33419 -0.59387 
2.425 401.0 68.669 19.346 330.363 0.30913 -0.54335 
2.450 393.0 68.799 17.380 331.320 0.27362 -0.50019 
2.475 393.0 75.258 15.556 333.606 0.22970 -0.46284 
2.500 412.0 73.908 13.868 337.742 0.17629 -0.43073 
2.525 404.0 69.117 12.671 343.666 0.12038 -0.41074 
2.550 404.0 68.412 11.907 351.159 0.06206 -0.39898 
2.575 404.0 76.455 11.667 359.126 0.00604 -0.39603 
2.600 404.0 68.816 11.929 7.092 -0.04994 -0.40138 
2.625 393.0 68.502 12.600 13.765 -0.10130 -0.41354 
2.650 386.0 67.389 13.506 18.629 -0.14509 -0.43039 
2.675 394.0 67.567 14.582 21.743 -0.18053 -0.45265 
2.700 394.0 60.305 15.747 23.748 -0.21038 -0.47818 
2.725 406.0 70.740 17.029 24.685 -0.23389 -0.50885 
2.750 406.0 74.904 18.203 24.699 -0.24799 -0.53920 
2.775 406.0 64.195 19.253 24.175 -0.25497 -0.56799 
2.800 406.0 61.267 20.254 23.149 -0.25536 -0.59724 
2.825 406.0 60.068 21.157 21.750 -0.24946 -0.62527 
2.850 418.0 70.179 21.950 19.999 -0.23715 -0.65158 
2.875 418.0 65.703 22.596 18.130 -0.22077 -0.67425 
2.900 418.0 66.202 23.071 16.182 -0.20095 -0.69250 
2.925 418.0 64.318 23.423 14.178 -0.17869 -0.70730 
2.950 418.0 65.352 23.670 11.935 -0.15208 -0.71949 
2.975 418.0 61.854 23.773 9.841 -0.12611 -0.72696 
3.000 418.0 62.783 23.692 7.697 -0.09856 -0.72928 
3.025 418.0 60.943 23.540 5.853 -0.07468 -0.72849 
3.050 418.0 60.026 23.234 4.172 -0.05274 -0.72306 
3.075 428.0 72.574 22.812 2.789 -0.03478 -0.71393 
3.100 402.0 59.330 22.351 1.474 -0.01809 -0.70318 
3.125 410.0 70.398 21.780 0.598 -0.00719 -0.68907 
3.150 410.0 66.633 21.255 0.002 -0.00002 -0.67572 
3.175 410.0 66.994 20.646 359.725 0.00317 -0.65989 
3.200 410.0 65.198 20.092 359.831 0.00191 -0.64524 
3.225 410.0 65.408 19.598 0.206 -0.00227 -0.63198 
3.250 410.0 65.735 19.131 0.949 -0.01026 -0.61918 
3.275 410.0 64.728 18.717 1.988 -0.02108 -0.60749 
3.300 410.0 62.362 18.380 3.214 -0.03355 -0.59752 
3.325 410.0 58.023 18.172 4.740 -0.04897 -0.59062 
3.350 420.0 67.272 18.035 6.359 -0.06521 -0.58514 
3.375 420.0 68.492 18.045 7.912 -0.08108 -0.58346 
3.400 420.0 70.525 18.134 9.134 -0.09391 -0.58407 
3.425 420.0 70.804 18.276 10.247 -0.10594 -0.58606 
3.450 420.0 70.320 18.495 11.163 -0.11649 -0.59030 
3.475 420.0 69.481 18.710 11.892 -0.12521 -0.59462 
3.500 420.0 67.198 18.942 12.406 -0.13192 -0.59973 
3.525 420.0 65.123 19.190 12.803 -0.13758 -0.60545 
3.550 420.0 64.730 19.403 13.030 -0.14129 -0.61054 
3.575 420.0 62.822 19.611 13.113 -0.14346 -0.61584 
3.600 420.0 60.810 19.799 13.163 -0.14515 -0.62065 
3.625 420.0 60.970 19.980 13.100 -0.14556 -0.62554 
3.650 420.0 60.246 20.151 13.034 -0.14587 -0.63014 
3.675 429.0 68.994 20.235 12.804 -0.14384 -0.63292 
3.700 429.0 68.778 20.380 12.622 -0.14267 -0.63711 
3.725 429.0 68.363 20.446 12.463 -0.14128 -0.63922 
3.750 429.0 67.089 20.513 12.208 -0.13880 -0.64156 
3.775 429.0 64.675 20.561 12.065 -0.13747 -0.64315 
3.800 429.0 62.988 20.592 11.860 -0.13534 -0.64442 
3.825 429.0 60.842 20.601 11.671 -0.13325 -0.64509 
3.850 439.0 67.489 20.586 11.497 -0.13121 -0.64512 
3.875 439.0 63.343 20.576 11.404 -0.13011 -0.64507 
3.900 451.0 72.819 20.543 11.328 -0.12909 -0.64439 
3.925 451.0 67.803 20.515 11.228 -0.12782 -0.64388 
3.950 451.0 62.769 20.496 11.226 -0.12770 -0.64340 
3.975 451.0 59.048 20.464 11.237 -0.12766 -0.64254 
4.000 465.0 68.111 20.423 11.276 -0.12788 -0.64139 
4.025 465.0 65.210 20.392 11.346 -0.12851 -0.64045 
4.050 465.0 62.024 20.397 11.424 -0.12941 -0.64040 
4.075 465.0 58.533 20.368 11.603 -0.13125 -0.63924 
4.100 477.0 64.863 20.334 11.723 -0.13241 -0.63808 
4.125 477.0 62.791 20.335 11.828 -0.13358 -0.63787 
4.150 477.0 59.048 20.329 11.887 -0.13420 -0.63757 
4.175 490.0 69.912 20.323 12.098 -0.13652 -0.63691 
4.200 490.0 65.882 20.298 12.321 -0.13886 -0.63575 
4.225 490.0 64.930 20.322 12.403 -0.13990 -0.63615 
4.250 490.0 62.725 20.301 12.625 -0.14225 -0.63507 
4.275 490.0 59.829 20.394 12.781 -0.14452 -0.63707 
4.300 530.0 68.035 20.307 12.907 -0.14540 -0.63451 
4.325 530.0 73.294 20.322 13.223 -0.14900 -0.63410 
4.350 530.0 76.256 20.347 13.323 -0.15025 -0.63446 
4.375 518.0 66.783 20.401 13.434 -0.15182 -0.63557 
4.400 518.0 69.554 20.392 13.447 -0.15190 -0.63530 
4.425 518.0 72.208 20.456 13.599 -0.15398 -0.63653 
4.450 518.0 72.555 20.574 13.576 -0.15445 -0.63962 
4.475 518.0 74.945 20.504 13.748 -0.15594 -0.63737 
4.500 518.0 71.461 20.521 13.883 -0.15755 -0.63744 
4.525 518.0 75.205 20.595 13.876 -0.15794 -0.63933 
4.550 518.0 74.682 20.627 13.911 -0.15853 -0.64006 
4.575 518.0 72.689 20.633 13.942 -0.15892 -0.64011 
4.600 518.0 72.741 20.689 14.003 -0.15994 -0.64138 
4.625 518.0 70.492 20.707 14.053 -0.16062 -0.64169 
4.650 518.0 69.976 20.739 13.994 -0.16017 -0.64267 
4.675 518.0 67.933 20.789 14.053 -0.16115 -0.64379 
4.700 518.0 68.624 20.748 14.184 -0.16235 -0.64237 
4.725 518.0 66.558 20.756 14.175 -0.16230 -0.64259 
4.750 518.0 63.977 20.761 14.145 -0.16200 -0.64281 
4.775 518.0 62.727 20.821 14.170 -0.16266 -0.64426 
4.800 518.0 59.586 20.834 14.211 -0.16321 -0.64447 
4.825 518.0 58.420 20.835 14.294 -0.16415 -0.64426 
4.850 530.0 67.446 20.855 14.270 -0.16400 -0.64482 
4.875 530.0 65.850 20.857 14.344 -0.16485 -0.64466 
4.900 530.0 62.757 20.903 14.319 -0.16486 -0.64589 
4.925 541.0 72.676 20.857 14.405 -0.16554 -0.64449 
4.950 541.0 68.728 20.932 14.448 -0.16650 -0.64625 
4.975 541.0 69.618 20.895 14.562 -0.16756 -0.64499 
5.000 541.0 68.722 20.916 14.572 -0.16780 -0.64551 
5.025 541.0 63.863 20.922 14.613 -0.16830 -0.64551 
5.050 541.0 64.641 20.939 14.613 -0.16841 -0.64595 
5.075 541.0 61.861 20.877 14.710 -0.16910 -0.64410 
5.100 541.0 60.939 20.978 14.770 -0.17044 -0.64646 
5.125 541.0 59.453 20.967 14.896 -0.17179 -0.64582 
5.150 556.0 69.666 20.912 14.903 -0.17149 -0.64441 
5.175 556.0 68.101 20.948 14.887 -0.17156 -0.64537 
5.200 556.0 65.552 20.970 14.993 -0.17291 -0.64561 
5.225 556.0 64.332 21.022 15.143 -0.17495 -0.64645 
5.250 556.0 61.812 20.949 15.225 -0.17538 -0.64438 
5.275 556.0 59.718 21.021 15.255 -0.17620 -0.64608 
5.300 556.0 60.208 21.081 15.238 -0.17642 -0.64764 
5.325 570.0 67.631 21.036 15.325 -0.17710 -0.64624 
5.350 570.0 66.261 21.025 15.467 -0.17863 -0.64553 
5.375 570.0 66.239 20.973 15.509 -0.17874 -0.64409 
5.400 570.0 63.431 21.026 15.479 -0.17877 -0.64551 
5.425 570.0 63.911 21.032 15.486 -0.17888 -0.64563 
5.450 570.0 59.184 21.052 15.563 -0.17989 -0.64590 
5.475 582.0 69.373 21.072 15.721 -0.18181 -0.64590 
5.500 582.0 65.809 21.068 15.731 -0.18189 -0.64576 
5.525 582.0 63.469 21.117 15.638 -0.18119 -0.64728 
5.550 582.0 62.321 21.138 15.897 -0.18426 -0.64699 
5.575 582.0 61.201 21.148 15.933 -0.18474 -0.64711 
5.600 594.0 69.357 21.138 16.123 -0.18681 -0.64623 
5.625 594.0 65.875 21.172 16.063 -0.18637 -0.64728 
5.650 594.0 61.236 21.178 16.177 -0.18771 -0.64706 
5.675 606.0 70.256 21.218 16.259 -0.18892 -0.64779 
5.700 606.0 69.551 21.265 16.175 -0.18831 -0.64922 
5.725 606.0 62.824 21.224 16.357 -0.19007 -0.64760 
5.750 606.0 61.976 21.200 16.386 -0.19022 -0.64691 
5.775 620.0 68.493 21.343 16.398 -0.19140 -0.65041 
5.800 620.0 66.008 21.299 16.539 -0.19268 -0.64884 
5.825 620.0 60.604 21.291 16.636 -0.19372 -0.64832 
5.850 634.0 67.214 21.262 16.552 -0.19256 -0.64790 
5.875 634.0 63.913 21.408 16.600 -0.19417 -0.65132 
5.900 634.0 59.301 21.320 16.607 -0.19360 -0.64914 
5.925 651.0 68.456 21.327 16.738 -0.19514 -0.64886 
5.950 651.0 63.929 21.294 17.066 -0.19860 -0.64692 
5.975 670.0 72.051 21.397 16.949 -0.19806 -0.64987 
6.000 670.0 67.493 21.252 16.894 -0.19634 -0.64648 
6.025 670.0 62.630 21.393 16.912 -0.19760 -0.64988 
6.050 691.0 73.832 21.375 16.935 -0.19772 -0.64937 
6.075 691.0 67.856 21.393 17.000 -0.19860 -0.64959 
6.100 691.0 61.171 21.454 16.962 -0.19863 -0.65122 
6.125 691.0 59.301 21.431 17.001 -0.19890 -0.65050 
6.150 706.0 65.869 21.305 17.300 -0.20132 -0.64638 
6.175 723.0 71.208 21.551 16.874 -0.19834 -0.65388 
6.200 723.0 66.464 21.389 17.483 -0.20403 -0.64778 
6.225 723.0 61.451 21.477 17.051 -0.19981 -0.65146 
6.250 739.0 67.132 21.632 17.196 -0.20262 -0.65471 
6.275 739.0 63.498 21.464 17.441 -0.20414 -0.64978 
6.300 739.0 58.186 21.500 17.075 -0.20025 -0.65193 
6.325 759.0 65.450 21.484 17.692 -0.20714 -0.64936 
6.350 759.0 61.569 21.533 17.212 -0.20205 -0.65226 
6.375 780.0 67.372 21.915 17.239 -0.20524 -0.66142 
6.400 780.0 60.773 21.572 16.986 -0.19977 -0.65399 
6.425 780.0 53.864 21.863 17.655 -0.20962 -0.65865 
6.450 780.0 48.483 21.597 16.657 -0.19620 -0.65575 
6.475 780.0 42.329 21.615 18.125 -0.21307 -0.65094 
6.500 780.0 36.285 21.836 17.885 -0.21207 -0.65716 

# MINIMA:
0.600 386.0 32.367 1.724 0.002 -0.58557 -0.99921 

# MAXIMA:
6.500 3905.3 81.534 45.000 359.831 0.60782 -0.05833 

# PEAKS:

# END SPECTRUM

