## SPECTRUM TYPE:
Spectroscopic

## DATE:
11/9/2011

## COMMENTS:

## NUMBER OF SPECTRUM:
5

## ELLIPSOMETRIC CONFIGURATION:
+90.00 øModulator
+45.00 øAnalyser

## UNIT:
eV


# SPECTRUM:
1

# START TIME:
16:14:18

# END TIME:
16:25:52

# THETA ANGLE:
0.00 ø

# INCIDENCE ANGLE:
55.00 ø

# ACCUMULATION NUMBER:
1

# ELLIPSOMETRIC CONFIGURATION:
+90.00 øModulator
+45.00 øAnalyser

# INTEGRATION TIME:
500 ms

# FIRST POINT:
0.6000 eV

# LAST POINT:
6.5000 eV

# INCREMENT:
0.0250 eV

# NUMBER OF POINTS:
237

# DATA:
eV Hv S0 Psi Delta Is Ic 
0.600 1498.6 59.579 23.283 213.224 -0.39788 0.60746 
0.625 1397.0 73.254 24.531 212.178 -0.40230 0.63938 
0.650 1295.4 68.750 25.671 210.992 -0.40209 0.66940 
0.675 1295.4 67.646 25.087 210.498 -0.38976 0.66173 
0.700 1193.8 75.950 25.314 207.063 -0.35171 0.68840 
0.725 1092.2 73.257 26.366 203.912 -0.32257 0.72750 
0.750 1092.2 76.891 26.065 200.856 -0.28105 0.73769 
0.775 990.6 75.719 27.085 196.937 -0.23619 0.77559 
0.800 692.2 74.782 27.559 193.086 -0.18573 0.79903 
0.825 889.0 69.348 27.424 189.123 -0.12964 0.80729 
0.850 889.0 67.006 26.913 185.244 -0.07378 0.80384 
0.875 692.2 75.869 27.341 181.061 -0.01511 0.81582 
0.900 793.8 74.511 27.072 176.973 0.04280 0.80936 
0.925 895.4 73.196 27.483 172.858 0.10180 0.81247 
0.950 895.4 62.665 27.901 168.869 0.15968 0.81154 
0.975 698.5 64.802 27.581 164.725 0.21624 0.79178 
1.000 997.0 76.559 26.957 160.703 0.26707 0.76273 
1.025 997.0 76.923 26.836 156.829 0.31700 0.74066 
1.050 698.5 77.949 26.569 153.145 0.36142 0.71379 
1.075 997.0 65.633 26.593 149.658 0.40443 0.69093 
1.100 997.0 66.848 25.927 145.841 0.44158 0.65077 
1.125 1098.6 77.349 25.764 142.139 0.48051 0.61812 
1.150 1003.3 62.287 25.167 137.153 0.52347 0.56438 
1.175 1104.9 63.456 24.558 128.469 0.59194 0.47033 
1.200 1505.0 68.708 25.211 112.961 0.70969 0.30067 
1.225 1403.4 78.266 27.977 94.515 0.82601 0.06523 
1.250 1003.3 62.081 32.443 77.150 0.88279 -0.20137 
1.275 2603.5 64.287 36.681 58.358 0.81570 -0.50265 
1.300 3905.3 53.291 38.845 29.328 0.47855 -0.85179 
1.325 3905.3 38.871 38.933 357.533 -0.04207 -0.97675 
1.350 3905.3 78.952 39.394 317.999 -0.65638 -0.72895 
1.375 3403.6 79.192 36.760 293.379 -0.88019 -0.38051 
1.400 1905.0 78.232 32.999 272.757 -0.91248 -0.04394 
1.425 3905.3 37.611 29.878 260.040 -0.85088 0.14941 
1.450 3905.3 22.107 27.894 248.673 -0.77034 0.30075 
1.475 727.0 75.507 26.719 237.060 -0.67409 0.43676 
1.500 533.0 72.338 26.467 230.465 -0.61539 0.50793 
1.525 604.0 63.822 26.288 222.707 -0.53864 0.58357 
1.550 549.0 73.397 25.748 216.956 -0.47048 0.62536 
1.575 577.0 65.448 25.773 210.654 -0.39927 0.67368 
1.600 577.0 75.357 26.067 204.590 -0.32851 0.71785 
1.625 516.0 72.798 25.999 199.353 -0.26113 0.74347 
1.650 529.0 69.654 26.088 193.602 -0.18577 0.76775 
1.675 515.0 68.497 26.128 188.381 -0.11525 0.78230 
1.700 505.0 70.589 26.089 183.058 -0.04214 0.78880 
1.725 505.0 78.327 25.957 177.779 0.03051 0.78649 
1.750 489.0 69.359 25.771 172.571 0.10125 0.77648 
1.775 489.0 76.195 25.641 167.419 0.16995 0.76151 
1.800 471.0 70.792 25.473 161.941 0.24072 0.73829 
1.825 471.0 71.973 25.196 156.634 0.30555 0.70723 
1.850 471.0 74.550 24.801 151.026 0.36891 0.66623 
1.875 471.0 73.936 24.470 145.392 0.42825 0.62060 
1.900 471.0 75.134 24.065 139.240 0.48619 0.56405 
1.925 471.0 72.656 23.579 132.739 0.53852 0.49761 
1.950 471.0 68.009 23.088 125.491 0.58743 0.41887 
1.975 471.0 62.818 22.663 117.047 0.63334 0.32336 
2.000 485.0 67.797 22.216 107.257 0.66855 0.20768 
2.025 499.0 67.101 21.790 94.934 0.68681 0.05929 
2.050 518.0 67.652 21.322 79.964 0.66708 -0.11806 
2.075 518.0 59.619 20.616 59.746 0.56934 -0.33208 
2.100 539.0 67.043 19.898 33.597 0.35417 -0.53313 
2.125 539.0 62.926 18.955 3.793 0.04065 -0.61307 
2.150 539.0 70.550 18.165 331.415 -0.28346 -0.52022 
2.175 523.0 70.791 17.781 301.547 -0.49564 -0.30429 
2.200 503.0 70.146 17.839 277.752 -0.57789 -0.07866 
2.225 485.0 70.485 18.120 258.622 -0.57955 0.11662 
2.250 470.0 71.937 18.527 244.214 -0.54257 0.26212 
2.275 456.0 70.109 18.953 233.031 -0.49085 0.36946 
2.300 446.0 70.421 19.360 223.484 -0.43046 0.45386 
2.325 436.0 68.955 19.746 215.282 -0.36733 0.51915 
2.350 436.0 77.854 20.091 208.304 -0.30594 0.56809 
2.375 425.0 71.021 20.369 202.073 -0.24524 0.60478 
2.400 425.0 77.036 20.546 196.223 -0.18362 0.63109 
2.425 415.0 70.639 20.669 190.806 -0.12383 0.64878 
2.450 405.0 69.043 20.706 185.860 -0.06754 0.65802 
2.475 405.0 73.212 20.655 181.183 -0.01363 0.65998 
2.500 388.0 72.153 20.717 176.433 0.04117 0.66048 
2.525 388.0 75.451 20.419 172.050 0.09044 0.64764 
2.550 388.0 70.583 20.061 167.716 0.13710 0.62966 
2.575 388.0 76.048 19.697 163.652 0.17864 0.60900 
2.600 388.0 65.796 19.295 159.485 0.21859 0.58419 
2.625 388.0 76.275 18.718 155.334 0.25368 0.55242 
2.650 388.0 78.040 18.053 151.386 0.28221 0.51730 
2.675 388.0 63.739 17.312 147.664 0.30392 0.48009 
2.700 401.0 68.848 16.406 143.735 0.32053 0.43691 
2.725 409.0 68.923 15.326 139.765 0.32930 0.38919 
2.750 409.0 65.426 14.118 136.141 0.32781 0.34113 
2.775 421.0 66.239 12.867 133.310 0.31595 0.29784 
2.800 430.0 69.137 11.435 130.936 0.29360 0.25465 
2.825 430.0 64.496 9.938 130.266 0.25942 0.21975 
2.850 440.0 68.831 8.262 131.474 0.21310 0.18836 
2.875 440.0 64.795 6.839 137.161 0.16078 0.17339 
2.900 440.0 63.641 5.893 147.911 0.10852 0.17306 
2.925 440.0 63.098 5.574 162.074 0.05951 0.18396 
2.950 440.0 65.903 5.952 176.233 0.01355 0.20581 
2.975 440.0 66.702 6.882 185.216 -0.02163 0.23693 
3.000 440.0 69.527 8.031 189.563 -0.04596 0.27283 
3.025 440.0 71.635 9.172 190.991 -0.06001 0.30895 
3.050 440.0 73.818 10.199 190.561 -0.06388 0.34265 
3.075 440.0 75.691 11.128 189.446 -0.06216 0.37361 
3.100 418.0 70.455 11.967 187.530 -0.05317 0.40219 
3.125 418.0 74.077 12.735 185.420 -0.04062 0.42813 
3.150 418.0 74.827 13.338 182.947 -0.02308 0.44835 
3.175 418.0 73.876 13.857 180.429 -0.00348 0.46505 
3.200 418.0 72.880 14.212 178.026 0.01639 0.47571 
3.225 418.0 71.519 14.530 175.732 0.03615 0.48437 
3.250 418.0 71.613 14.771 173.334 0.05723 0.48972 
3.275 418.0 69.283 14.903 170.734 0.08004 0.49058 
3.300 418.0 65.451 14.935 168.352 0.10056 0.48779 
3.325 418.0 60.337 14.850 165.940 0.12036 0.48061 
3.350 429.0 67.730 14.785 163.725 0.13830 0.47372 
3.375 429.0 67.189 14.549 161.662 0.15300 0.46159 
3.400 429.0 67.305 14.297 159.988 0.16379 0.44970 
3.425 429.0 65.451 13.986 158.579 0.17130 0.43664 
3.450 429.0 63.309 13.708 157.575 0.17565 0.42563 
3.475 429.0 60.172 13.356 156.661 0.17808 0.41273 
3.500 441.0 70.146 13.054 156.174 0.17777 0.40257 
3.525 441.0 66.456 12.778 155.794 0.17687 0.39345 
3.550 441.0 63.407 12.483 155.762 0.17328 0.38487 
3.575 441.0 60.755 12.221 155.896 0.16898 0.37770 
3.600 450.0 67.814 12.011 156.248 0.16397 0.37262 
3.625 450.0 66.107 11.868 156.735 0.15899 0.36979 
3.650 450.0 64.231 11.738 157.444 0.15280 0.36788 
3.675 450.0 63.087 11.629 158.255 0.14630 0.36678 
3.700 450.0 61.788 11.609 158.922 0.14177 0.36784 
3.725 450.0 60.847 11.536 159.524 0.13709 0.36713 
3.750 450.0 60.132 11.558 160.199 0.13299 0.36938 
3.775 460.0 68.562 11.610 160.659 0.13058 0.37203 
3.800 460.0 65.573 11.681 161.227 0.12761 0.37543 
3.825 460.0 63.513 11.751 161.446 0.12689 0.37805 
3.850 460.0 60.021 11.847 161.697 0.12620 0.38153 
3.875 474.0 68.942 11.938 161.899 0.12575 0.38472 
3.900 474.0 63.928 11.994 161.867 0.12653 0.38635 
3.925 474.0 58.805 12.128 161.862 0.12788 0.39039 
3.950 488.0 67.785 12.240 161.705 0.13008 0.39343 
3.975 488.0 63.334 12.295 161.409 0.13266 0.39440 
4.000 488.0 59.839 12.380 161.044 0.13605 0.39611 
4.025 500.0 67.433 12.432 160.731 0.13875 0.39691 
4.050 500.0 63.269 12.513 160.276 0.14277 0.39820 
4.075 500.0 59.328 12.518 160.070 0.14425 0.39784 
4.100 513.0 66.870 12.577 159.636 0.14791 0.39850 
4.125 513.0 62.066 12.607 159.196 0.15130 0.39822 
4.150 513.0 58.468 12.647 158.849 0.15417 0.39849 
4.175 527.0 67.241 12.619 158.352 0.15729 0.39630 
4.200 527.0 64.164 12.665 157.957 0.16057 0.39655 
4.225 527.0 60.995 12.605 157.507 0.16295 0.39354 
4.250 539.0 69.670 12.586 157.069 0.16572 0.39172 
4.275 539.0 66.069 12.594 156.820 0.16753 0.39124 
4.300 522.0 69.510 12.667 156.454 0.17093 0.39225 
4.325 522.0 72.674 12.430 155.979 0.17114 0.38400 
4.350 522.0 75.990 12.350 155.512 0.17321 0.38029 
4.375 522.0 77.922 12.395 155.611 0.17313 0.38187 
4.400 522.0 80.246 12.277 155.380 0.17311 0.37777 
4.425 511.0 69.104 12.306 155.283 0.17414 0.37831 
4.450 511.0 70.042 12.380 155.097 0.17636 0.37987 
4.475 511.0 71.019 12.211 154.886 0.17548 0.37438 
4.500 511.0 70.699 12.261 154.896 0.17609 0.37583 
4.525 511.0 70.472 12.234 154.715 0.17691 0.37451 
4.550 511.0 69.905 12.323 154.839 0.17729 0.37744 
4.575 511.0 69.074 12.097 154.514 0.17634 0.36995 
4.600 511.0 68.003 12.316 154.695 0.17816 0.37680 
4.625 511.0 67.495 12.074 154.313 0.17732 0.36866 
4.650 511.0 65.069 12.147 154.466 0.17734 0.37124 
4.675 511.0 63.596 12.185 154.415 0.17819 0.37216 
4.700 511.0 61.846 12.269 154.586 0.17823 0.37511 
4.725 511.0 59.905 12.145 154.333 0.17818 0.37077 
4.750 523.0 69.678 12.148 154.399 0.17779 0.37106 
4.775 523.0 66.790 12.171 154.082 0.18015 0.37072 
4.800 523.0 64.821 12.291 154.237 0.18081 0.37465 
4.825 523.0 62.768 12.297 154.102 0.18178 0.37440 
4.850 523.0 61.213 12.227 153.770 0.18296 0.37132 
4.875 534.0 68.355 12.369 154.174 0.18230 0.37667 
4.900 534.0 65.439 12.381 153.654 0.18589 0.37535 
4.925 534.0 63.221 12.320 153.802 0.18406 0.37408 
4.950 534.0 61.581 12.316 153.797 0.18403 0.37395 
4.975 534.0 59.581 12.344 153.421 0.18687 0.37353 
5.000 546.0 67.764 12.364 153.272 0.18814 0.37363 
5.025 546.0 65.957 12.300 153.208 0.18764 0.37158 
5.050 546.0 64.144 12.351 153.057 0.18935 0.37253 
5.075 546.0 61.683 12.369 152.731 0.19172 0.37196 
5.100 558.0 69.776 12.391 152.640 0.19264 0.37227 
5.125 558.0 67.578 12.359 152.738 0.19153 0.37170 
5.150 558.0 64.235 12.513 152.519 0.19521 0.37529 
5.175 558.0 61.851 12.453 152.420 0.19498 0.37328 
5.200 569.0 68.363 12.394 152.436 0.19401 0.37168 
5.225 569.0 64.820 12.499 152.156 0.19737 0.37366 
5.250 569.0 61.453 12.409 151.905 0.19767 0.37028 
5.275 569.0 59.708 12.477 151.704 0.20000 0.37149 
5.300 582.0 67.963 12.555 152.280 0.19739 0.37567 
5.325 582.0 65.019 12.542 151.606 0.20160 0.37293 
5.350 582.0 62.831 12.525 151.554 0.20169 0.37230 
5.375 582.0 60.728 12.540 151.387 0.20300 0.37212 
5.400 595.0 69.444 12.502 151.388 0.20241 0.37106 
5.425 595.0 66.486 12.541 151.633 0.20140 0.37300 
5.450 595.0 64.013 12.563 151.519 0.20249 0.37324 
5.475 595.0 61.579 12.611 151.137 0.20570 0.37320 
5.500 608.0 69.724 12.590 150.922 0.20677 0.37183 
5.525 608.0 66.348 12.615 151.082 0.20613 0.37311 
5.550 608.0 63.572 12.498 150.602 0.20742 0.36814 
5.575 608.0 59.865 12.595 150.645 0.20865 0.37098 
5.600 621.0 67.102 12.480 150.743 0.20623 0.36815 
5.625 621.0 63.688 12.440 150.094 0.20976 0.36471 
5.650 621.0 60.057 12.586 150.412 0.21002 0.36988 
5.675 636.0 68.926 12.568 150.037 0.21214 0.36799 
5.700 636.0 64.594 12.636 150.103 0.21279 0.37009 
5.725 636.0 61.303 12.544 149.827 0.21311 0.36655 
5.750 654.0 70.921 12.616 149.484 0.21646 0.36723 
5.775 654.0 66.642 12.672 149.654 0.21626 0.36939 
5.800 654.0 62.526 12.594 149.367 0.21686 0.36620 
5.825 667.0 68.173 12.665 149.454 0.21744 0.36846 
5.850 667.0 61.564 12.480 149.244 0.21580 0.36264 
5.875 681.0 67.756 12.713 149.152 0.22016 0.36861 
5.900 681.0 62.198 12.689 149.236 0.21922 0.36827 
5.925 681.0 56.832 12.763 149.411 0.21929 0.37096 
5.950 707.0 69.254 12.676 148.798 0.22182 0.36624 
5.975 707.0 62.565 12.415 148.558 0.21905 0.35827 
6.000 723.0 67.873 12.604 148.368 0.22336 0.36262 
6.025 723.0 62.701 12.590 148.058 0.22509 0.36103 
6.050 723.0 56.982 12.495 148.088 0.22331 0.35860 
6.075 746.0 66.399 12.589 148.591 0.22171 0.36309 
6.100 746.0 61.057 12.476 147.770 0.22499 0.35686 
6.125 766.0 66.957 12.750 148.287 0.22630 0.36623 
6.150 766.0 62.793 12.774 148.027 0.22836 0.36584 
6.175 766.0 58.033 12.647 147.972 0.22659 0.36223 
6.200 780.0 61.290 12.104 144.580 0.23765 0.33415 
6.225 780.0 56.597 12.381 147.073 0.22768 0.35157 
6.250 780.0 52.416 12.491 147.806 0.22501 0.35740 
6.275 780.0 48.160 12.614 148.356 0.22361 0.36284 
6.300 780.0 44.572 12.674 147.429 0.23047 0.36078 
6.325 780.0 41.189 12.722 147.411 0.23140 0.36199 
6.350 780.0 37.034 12.640 147.795 0.22760 0.36135 
6.375 780.0 33.173 12.727 146.899 0.23471 0.36004 
6.400 780.0 29.689 12.658 147.294 0.23105 0.35981 
6.425 780.0 26.606 12.956 147.711 0.23343 0.36941 
6.450 780.0 23.329 12.284 147.323 0.22448 0.34998 
6.475 780.0 20.730 12.288 145.854 0.23345 0.34420 
6.500 780.0 17.701 12.152 144.930 0.23649 0.33686 

# MINIMA:
0.600 388.0 17.701 5.574 3.793 -0.91248 -0.97675 

# MAXIMA:
6.500 3905.3 80.246 39.394 357.533 0.88279 0.81582 

# PEAKS:

# END SPECTRUM


# SPECTRUM:
2

# START TIME:
16:26:36

# END TIME:
16:37:14

# THETA ANGLE:
0.00 ø

# INCIDENCE ANGLE:
60.00 ø

# ACCUMULATION NUMBER:
1

# ELLIPSOMETRIC CONFIGURATION:
+90.00 øModulator
+45.00 øAnalyser

# INTEGRATION TIME:
500 ms

# FIRST POINT:
0.6000 eV

# LAST POINT:
6.5000 eV

# INCREMENT:
0.0250 eV

# NUMBER OF POINTS:
237

# DATA:
eV Hv S0 Psi Delta Is Ic 
0.600 1701.8 63.433 18.776 228.249 -0.45470 0.40586 
0.625 1505.0 75.045 19.427 227.960 -0.46591 0.42009 
0.650 1403.4 74.190 20.336 227.135 -0.47769 0.44336 
0.675 1403.4 74.770 21.634 223.845 -0.47479 0.49433 
0.700 1206.5 71.477 21.585 219.912 -0.43897 0.52478 
0.725 1104.9 69.106 23.038 215.546 -0.41873 0.58604 
0.750 1104.9 74.654 22.537 211.299 -0.36782 0.60498 
0.775 1003.3 73.667 22.042 206.660 -0.31216 0.62174 
0.800 704.9 76.513 22.543 201.388 -0.25825 0.65939 
0.825 901.7 70.411 22.595 195.920 -0.19460 0.68224 
0.850 901.7 67.783 22.324 190.388 -0.12671 0.69122 
0.875 704.9 79.774 22.288 184.590 -0.05617 0.69960 
0.900 806.5 76.998 22.470 178.871 0.01391 0.70623 
0.925 908.1 77.202 22.726 173.166 0.08480 0.70759 
0.950 908.1 64.332 22.477 167.334 0.15492 0.68935 
0.975 711.2 69.981 22.319 161.598 0.22180 0.66669 
1.000 1009.7 79.066 22.458 156.117 0.28586 0.64560 
1.025 1009.7 79.783 22.671 150.894 0.34601 0.62149 
1.050 628.7 60.497 22.285 145.251 0.40000 0.57662 
1.075 1028.7 71.058 22.392 140.445 0.44859 0.54313 
1.100 1028.7 72.355 22.274 135.140 0.49483 0.49725 
1.125 1028.7 64.993 22.398 129.849 0.54094 0.45147 
1.150 1028.7 69.057 22.130 122.957 0.58561 0.37967 
1.175 1130.3 72.401 22.392 112.470 0.65095 0.26924 
1.200 1428.8 71.551 24.310 97.186 0.74445 0.09386 
1.225 1231.9 74.829 27.707 82.817 0.81681 -0.10294 
1.250 850.9 60.762 31.637 70.069 0.83968 -0.30447 
1.275 1651.0 62.396 35.720 56.439 0.78996 -0.52407 
1.300 2152.7 60.469 39.962 38.191 0.60875 -0.77383 
1.325 3454.4 61.389 40.358 16.846 0.28601 -0.94455 
1.350 2254.3 79.033 41.697 346.077 -0.23902 -0.96417 
1.375 2451.1 62.811 41.189 322.992 -0.59660 -0.79150 
1.400 1949.5 80.585 36.632 300.501 -0.82512 -0.48605 
1.425 3949.7 36.302 32.408 286.931 -0.86572 -0.26354 
1.450 3949.7 21.126 29.125 274.659 -0.84754 -0.06907 
1.475 780.0 112.359 26.057 261.575 -0.78072 0.11564 
1.500 535.0 66.482 25.069 254.277 -0.73888 0.20801 
1.525 622.0 73.388 23.852 245.077 -0.67080 0.31170 
1.550 553.0 72.708 23.119 236.988 -0.60562 0.39347 
1.575 584.0 67.583 22.490 228.846 -0.53224 0.46518 
1.600 584.0 78.245 21.889 221.018 -0.45407 0.52201 
1.625 506.0 61.637 21.643 213.702 -0.38044 0.57041 
1.650 529.0 68.583 21.547 205.728 -0.29658 0.61548 
1.675 516.0 70.106 21.312 198.246 -0.21202 0.64314 
1.700 502.0 67.946 21.238 190.674 -0.12508 0.66361 
1.725 502.0 76.354 21.061 183.359 -0.03930 0.66955 
1.750 489.0 71.765 20.955 175.937 0.04732 0.66628 
1.775 489.0 79.141 20.885 168.517 0.13261 0.65280 
1.800 467.0 70.299 20.861 160.957 0.21714 0.62910 
1.825 467.0 72.915 20.740 153.588 0.29463 0.59323 
1.850 467.0 76.029 20.643 146.028 0.36870 0.54720 
1.875 467.0 77.301 20.633 138.579 0.43635 0.49457 
1.900 467.0 80.234 20.534 130.578 0.49897 0.42733 
1.925 457.0 68.500 20.553 122.700 0.55326 0.35519 
1.950 457.0 67.366 20.588 114.349 0.59980 0.27144 
1.975 457.0 64.764 20.719 105.520 0.63767 0.17709 
2.000 457.0 60.242 21.056 95.915 0.66702 0.06911 
2.025 473.0 67.583 21.518 85.084 0.67996 -0.05848 
2.050 487.0 68.076 22.110 73.200 0.66765 -0.20157 
2.075 487.0 64.784 22.726 58.840 0.60985 -0.36876 
2.100 500.0 68.758 23.447 41.929 0.48785 -0.54316 
2.125 500.0 61.450 23.740 23.278 0.29127 -0.67704 
2.150 500.0 59.582 23.321 2.503 0.03176 -0.72638 
2.175 500.0 64.893 22.204 341.000 -0.22782 -0.66165 
2.200 500.0 76.563 20.589 320.943 -0.41486 -0.51127 
2.225 481.0 71.271 18.918 302.131 -0.51946 -0.32625 
2.250 466.0 69.494 17.558 285.828 -0.55343 -0.15689 
2.275 454.0 68.854 16.531 271.097 -0.54545 -0.01045 
2.300 444.0 69.789 15.725 257.516 -0.50942 0.11279 
2.325 436.0 71.451 15.205 244.946 -0.45854 0.21435 
2.350 427.0 69.177 14.906 234.153 -0.40299 0.29115 
2.375 427.0 76.432 14.680 224.164 -0.34159 0.35171 
2.400 417.0 70.653 14.574 214.773 -0.27779 0.40009 
2.425 417.0 77.300 14.486 205.934 -0.21183 0.43559 
2.450 402.0 69.880 14.436 197.802 -0.14763 0.45975 
2.475 402.0 75.396 14.373 190.253 -0.08560 0.47324 
2.500 387.0 70.985 14.337 182.518 -0.02108 0.47935 
2.525 387.0 75.061 14.258 175.268 0.03938 0.47576 
2.550 387.0 71.279 14.187 168.436 0.09527 0.46559 
2.575 387.0 77.960 13.937 161.940 0.14493 0.44448 
2.600 387.0 69.710 13.736 155.259 0.19306 0.41896 
2.625 379.0 69.837 13.411 148.549 0.23544 0.38494 
2.650 379.0 72.800 13.162 142.368 0.27077 0.35119 
2.675 379.0 60.019 12.722 135.967 0.29862 0.30887 
2.700 393.0 67.546 12.296 129.438 0.32140 0.26436 
2.725 393.0 59.317 11.781 122.517 0.33709 0.21489 
2.750 403.0 69.816 11.168 115.653 0.34259 0.16453 
2.775 413.0 68.664 10.502 108.976 0.33894 0.11655 
2.800 413.0 62.757 9.703 101.872 0.32517 0.06836 
2.825 423.0 69.487 8.822 94.636 0.30212 0.02450 
2.850 423.0 62.552 7.770 86.601 0.26744 -0.01589 
2.875 433.0 69.233 6.658 79.105 0.22619 -0.04354 
2.900 433.0 66.212 5.503 71.078 0.18061 -0.06191 
2.925 433.0 64.855 4.304 63.247 0.13367 -0.06738 
2.950 433.0 65.419 2.987 54.394 0.08461 -0.06059 
2.975 433.0 64.566 1.710 44.455 0.04179 -0.04259 
3.000 433.0 65.305 0.444 20.399 0.00540 -0.01451 
3.025 433.0 66.722 0.750 231.679 -0.02053 0.01623 
3.050 433.0 67.902 1.780 217.907 -0.03815 0.04900 
3.075 433.0 69.084 2.753 209.236 -0.04687 0.08374 
3.100 417.0 71.320 3.649 201.990 -0.04757 0.11779 
3.125 417.0 74.136 4.442 196.332 -0.04342 0.14819 
3.150 417.0 74.437 5.216 190.651 -0.03347 0.17796 
3.175 417.0 74.469 5.850 185.052 -0.01786 0.20201 
3.200 417.0 74.599 6.406 180.231 -0.00089 0.22174 
3.225 417.0 73.569 6.853 175.676 0.01786 0.23625 
3.250 417.0 73.126 7.253 170.955 0.03938 0.24738 
3.275 417.0 71.428 7.637 166.250 0.06262 0.25590 
3.300 417.0 68.613 7.861 161.855 0.08438 0.25749 
3.325 417.0 63.961 8.066 157.366 0.10693 0.25646 
3.350 425.0 69.160 8.210 153.000 0.12833 0.25187 
3.375 425.0 68.855 8.270 149.103 0.14619 0.24430 
3.400 425.0 68.929 8.213 145.413 0.16051 0.23279 
3.425 425.0 68.493 8.124 142.243 0.17133 0.22122 
3.450 425.0 66.517 7.974 139.158 0.17969 0.20786 
3.475 425.0 64.039 7.772 136.529 0.18436 0.19447 
3.500 425.0 60.652 7.604 134.251 0.18789 0.18304 
3.525 435.0 68.676 7.412 132.360 0.18905 0.17239 
3.550 435.0 65.504 7.203 130.842 0.18821 0.16270 
3.575 435.0 63.106 7.003 129.576 0.18655 0.15419 
3.600 435.0 60.745 6.766 128.493 0.18315 0.14565 
3.625 435.0 59.330 6.576 127.963 0.17938 0.13996 
3.650 445.0 68.684 6.407 127.791 0.17526 0.13590 
3.675 445.0 67.171 6.220 127.881 0.17003 0.13228 
3.700 445.0 65.985 6.081 128.399 0.16512 0.13086 
3.725 445.0 65.283 5.941 128.500 0.16114 0.12818 
3.750 445.0 63.831 5.852 129.765 0.15594 0.12977 
3.775 445.0 62.524 5.790 130.475 0.15269 0.13030 
3.800 445.0 60.221 5.734 131.461 0.14900 0.13165 
3.825 455.0 67.912 5.746 132.560 0.14674 0.13475 
3.850 455.0 64.026 5.776 133.276 0.14580 0.13728 
3.875 465.0 69.768 5.820 134.066 0.14498 0.14033 
3.900 465.0 64.160 5.868 134.640 0.14473 0.14292 
3.925 465.0 59.461 5.925 134.942 0.14535 0.14505 
3.950 479.0 69.452 6.007 135.272 0.14649 0.14788 
3.975 479.0 64.919 6.103 135.731 0.14757 0.15139 
4.000 479.0 60.902 6.191 135.815 0.14945 0.15376 
4.025 492.0 69.210 6.260 135.501 0.15193 0.15461 
4.050 492.0 65.450 6.352 135.576 0.15392 0.15705 
4.075 492.0 61.355 6.436 135.227 0.15691 0.15816 
4.100 503.0 68.191 6.503 134.452 0.16064 0.15760 
4.125 503.0 63.895 6.594 134.114 0.16380 0.15882 
4.150 503.0 59.432 6.680 133.813 0.16673 0.15996 
4.175 515.0 67.304 6.728 133.331 0.16926 0.15968 
4.200 515.0 64.494 6.793 132.699 0.17264 0.15930 
4.225 515.0 62.159 6.788 131.686 0.17530 0.15611 
4.250 515.0 59.246 6.859 131.222 0.17838 0.15628 
4.275 528.0 68.478 6.871 130.676 0.18017 0.15483 
4.300 518.0 69.968 6.814 128.845 0.18352 0.14779 
4.325 518.0 73.978 6.988 129.118 0.18737 0.15237 
4.350 518.0 77.280 6.896 128.417 0.18679 0.14814 
4.375 507.0 67.869 6.860 126.748 0.19005 0.14190 
4.400 507.0 70.051 6.962 127.460 0.19101 0.14636 
4.425 507.0 71.258 6.830 126.337 0.19023 0.13993 
4.450 507.0 71.788 6.992 126.958 0.19311 0.14529 
4.475 507.0 72.763 6.868 125.778 0.19263 0.13882 
4.500 507.0 72.375 6.906 125.860 0.19347 0.13985 
4.525 507.0 73.051 6.976 126.101 0.19481 0.14207 
4.550 507.0 72.327 6.830 124.869 0.19376 0.13501 
4.575 507.0 72.038 6.949 125.777 0.19487 0.14043 
4.600 507.0 70.354 6.897 124.955 0.19542 0.13661 
4.625 507.0 69.375 6.858 124.592 0.19518 0.13461 
4.650 507.0 67.676 6.892 124.915 0.19537 0.13637 
4.675 507.0 66.119 6.918 124.330 0.19747 0.13486 
4.700 507.0 64.351 7.010 125.482 0.19728 0.14062 
4.725 507.0 62.328 6.938 124.867 0.19678 0.13711 
4.750 507.0 60.452 6.896 124.244 0.19707 0.13415 
4.775 517.0 67.993 6.994 124.469 0.19929 0.13681 
4.800 517.0 65.255 7.018 124.821 0.19909 0.13848 
4.825 517.0 63.182 6.988 124.522 0.19900 0.13688 
4.850 517.0 60.809 6.994 124.089 0.20018 0.13548 
4.875 527.0 68.480 7.041 124.192 0.20126 0.13673 
4.900 527.0 66.068 7.091 124.042 0.20301 0.13715 
4.925 527.0 63.595 7.128 123.855 0.20450 0.13719 
4.950 527.0 61.573 7.109 123.773 0.20416 0.13653 
4.975 527.0 60.442 7.053 122.768 0.20494 0.13191 
5.000 540.0 70.056 7.148 123.193 0.20663 0.13518 
5.025 540.0 68.167 7.124 122.955 0.20651 0.13388 
5.050 540.0 66.118 7.140 122.511 0.20799 0.13256 
5.075 540.0 63.625 7.181 122.489 0.20921 0.13323 
5.100 540.0 60.710 7.254 123.074 0.20993 0.13672 
5.125 552.0 69.078 7.241 122.605 0.21067 0.13476 
5.150 552.0 67.272 7.287 122.347 0.21258 0.13463 
5.175 552.0 63.450 7.278 121.874 0.21344 0.13272 
5.200 552.0 60.749 7.276 121.543 0.21413 0.13144 
5.225 563.0 67.439 7.375 122.380 0.21501 0.13635 
5.250 563.0 64.726 7.355 121.576 0.21633 0.13296 
5.275 563.0 62.429 7.412 121.450 0.21825 0.13348 
5.300 575.0 70.491 7.378 121.047 0.21821 0.13136 
5.325 575.0 67.337 7.407 121.486 0.21803 0.13353 
5.350 575.0 64.797 7.463 121.129 0.22048 0.13315 
5.375 575.0 62.580 7.406 121.249 0.21857 0.13263 
5.400 575.0 60.649 7.509 121.692 0.22048 0.13613 
5.425 589.0 69.739 7.524 120.735 0.22315 0.13268 
5.450 589.0 67.343 7.474 120.534 0.22216 0.13104 
5.475 589.0 64.675 7.550 120.539 0.22437 0.13237 
5.500 589.0 62.204 7.454 119.467 0.22400 0.12656 
5.525 589.0 60.143 7.541 119.796 0.22579 0.12929 
5.550 604.0 69.248 7.647 120.230 0.22791 0.13281 
5.575 604.0 65.825 7.639 119.759 0.22875 0.13079 
5.600 604.0 63.102 7.697 120.141 0.22956 0.13329 
5.625 604.0 59.616 7.602 119.560 0.22812 0.12938 
5.650 620.0 69.090 7.569 118.925 0.22857 0.12631 
5.675 620.0 65.505 7.636 118.567 0.23133 0.12595 
5.700 620.0 62.000 7.715 118.215 0.23443 0.12578 
5.725 635.0 70.109 7.831 119.172 0.23571 0.13158 
5.750 635.0 65.520 7.805 118.827 0.23575 0.12975 
5.775 635.0 61.356 7.763 118.112 0.23610 0.12613 
5.800 649.0 67.466 7.857 117.854 0.23946 0.12654 
5.825 649.0 63.572 7.817 117.194 0.23970 0.12316 
5.850 662.0 68.239 7.792 117.481 0.23835 0.12397 
5.875 662.0 63.208 7.841 117.529 0.23969 0.12493 
5.900 676.0 68.252 7.993 118.492 0.24204 0.13138 
5.925 676.0 62.682 7.922 117.779 0.24155 0.12724 
5.950 692.0 68.778 7.915 117.551 0.24185 0.12618 
5.975 692.0 62.671 7.951 118.184 0.24150 0.12941 
6.000 708.0 68.556 7.907 117.436 0.24187 0.12556 
6.025 708.0 62.514 8.024 117.084 0.24612 0.12586 
6.050 725.0 68.406 8.023 115.768 0.24892 0.12016 
6.075 725.0 63.783 7.969 117.144 0.24435 0.12528 
6.100 742.0 69.392 7.898 116.548 0.24352 0.12167 
6.125 742.0 63.552 7.932 117.150 0.24324 0.12474 
6.150 742.0 58.344 8.033 115.795 0.24917 0.12043 
6.175 765.0 68.814 8.024 116.235 0.24797 0.12220 
6.200 765.0 63.047 8.092 115.987 0.25054 0.12213 
6.225 780.0 67.363 8.044 118.336 0.24392 0.13153 
6.250 780.0 63.170 8.019 116.663 0.24689 0.12397 
6.275 780.0 58.637 8.112 116.337 0.25041 0.12396 
6.300 780.0 53.818 7.983 116.266 0.24665 0.12172 
6.325 780.0 49.438 8.290 113.956 0.26079 0.11587 
6.350 780.0 45.128 7.980 115.600 0.24799 0.11882 
6.375 780.0 40.913 8.109 113.803 0.25554 0.11272 
6.400 780.0 36.775 8.025 113.526 0.25350 0.11036 
6.425 780.0 33.026 7.761 115.131 0.24229 0.11366 
6.450 780.0 28.823 8.008 113.434 0.25315 0.10972 
6.475 780.0 25.486 8.236 115.914 0.25503 0.12391 
6.500 780.0 21.929 7.998 116.050 0.24757 0.12101 

# MINIMA:
0.600 379.0 21.126 0.444 2.503 -0.86572 -0.96417 

# MAXIMA:
6.500 3949.7 112.359 41.697 346.077 0.83968 0.70759 

# PEAKS:

# END SPECTRUM


# SPECTRUM:
3

# START TIME:
16:38:00

# END TIME:
16:48:31

# THETA ANGLE:
0.00 ø

# INCIDENCE ANGLE:
65.00 ø

# ACCUMULATION NUMBER:
1

# ELLIPSOMETRIC CONFIGURATION:
+90.00 øModulator
+45.00 øAnalyser

# INTEGRATION TIME:
500 ms

# FIRST POINT:
0.6000 eV

# LAST POINT:
6.5000 eV

# INCREMENT:
0.0250 eV

# NUMBER OF POINTS:
237

# DATA:
eV Hv S0 Psi Delta Is Ic 
0.600 2101.9 62.623 15.227 253.447 -0.48585 0.14441 
0.625 1803.4 80.414 15.897 253.174 -0.50431 0.15251 
0.650 1606.6 77.543 16.989 249.204 -0.52246 0.19842 
0.675 1606.6 78.594 16.782 246.304 -0.50625 0.22219 
0.700 1308.1 69.665 17.690 241.798 -0.51027 0.27363 
0.725 1206.5 69.918 17.660 236.763 -0.48355 0.31688 
0.750 1206.5 77.191 17.282 230.891 -0.44021 0.35787 
0.775 1104.9 76.784 17.298 223.795 -0.39296 0.40984 
0.800 704.9 64.154 17.069 216.614 -0.33470 0.45045 
0.825 1003.3 77.737 17.169 208.502 -0.26917 0.49571 
0.850 1003.3 73.591 16.423 200.617 -0.19098 0.50764 
0.875 704.9 70.388 16.699 191.561 -0.11032 0.53930 
0.900 806.5 67.314 16.475 182.838 -0.02693 0.54324 
0.925 908.1 67.146 16.322 173.879 0.05752 0.53635 
0.950 1009.7 74.565 16.628 165.028 0.14167 0.52976 
0.975 717.6 63.028 16.512 155.984 0.22181 0.49781 
1.000 1016.0 70.769 17.027 148.070 0.29615 0.47524 
1.025 1016.0 71.195 17.332 140.050 0.36521 0.43601 
1.050 717.6 77.634 17.572 132.556 0.42402 0.38930 
1.075 1016.0 62.452 17.987 125.338 0.47920 0.33977 
1.100 1016.0 63.204 18.491 118.479 0.52876 0.28684 
1.125 1117.6 74.520 19.043 111.371 0.57444 0.22478 
1.150 1016.0 63.392 19.792 102.975 0.62093 0.14307 
1.175 1117.6 70.572 21.285 92.180 0.67600 0.02573 
1.200 1314.5 63.080 24.423 79.891 0.74125 -0.13216 
1.225 1117.6 70.534 28.008 69.491 0.77664 -0.29051 
1.250 819.2 74.619 31.576 60.349 0.77538 -0.44139 
1.275 1416.1 64.785 35.125 50.940 0.73080 -0.59307 
1.300 1517.7 61.631 39.211 38.609 0.61130 -0.76552 
1.325 2114.6 63.590 41.942 24.057 0.40533 -0.90794 
1.350 1517.7 77.707 44.005 3.095 0.05396 -0.99794 
1.375 1917.7 62.121 43.278 344.395 -0.26852 -0.96140 
1.400 1720.9 77.815 40.781 324.075 -0.58038 -0.80102 
1.425 3918.0 38.313 36.038 310.580 -0.72263 -0.61894 
1.450 3918.0 20.959 32.731 299.040 -0.79532 -0.44157 
1.475 780.0 95.136 27.865 288.465 -0.78386 -0.26175 
1.500 542.0 62.053 26.593 280.203 -0.78793 -0.14181 
1.525 636.0 72.887 23.926 272.291 -0.74082 -0.02964 
1.550 565.0 72.164 22.324 264.069 -0.69899 0.07261 
1.575 597.0 68.055 20.586 255.354 -0.63692 0.16645 
1.600 586.0 70.349 19.153 246.625 -0.56898 0.24592 
1.625 525.0 71.943 18.120 237.326 -0.49761 0.31914 
1.650 536.0 66.936 17.042 227.277 -0.41170 0.38021 
1.675 525.0 70.866 16.270 216.942 -0.32328 0.42991 
1.700 512.0 70.146 15.736 205.665 -0.22611 0.47057 
1.725 512.0 79.849 15.176 194.516 -0.12665 0.48917 
1.750 494.0 71.256 14.931 182.961 -0.02572 0.49724 
1.775 485.0 68.481 14.839 171.260 0.07523 0.48937 
1.800 470.0 69.514 14.997 159.485 0.17519 0.46819 
1.825 470.0 72.766 15.240 148.220 0.26714 0.43119 
1.850 470.0 77.310 15.647 137.245 0.35261 0.38139 
1.875 470.0 81.214 16.182 127.107 0.42690 0.32295 
1.900 457.0 68.858 16.903 116.810 0.49659 0.25095 
1.925 457.0 71.640 17.613 107.550 0.54995 0.17393 
1.950 457.0 71.674 18.446 98.425 0.59383 0.08796 
1.975 457.0 72.189 19.393 89.475 0.62639 -0.00574 
2.000 457.0 70.759 20.482 80.824 0.64720 -0.10454 
2.025 457.0 64.080 21.655 71.891 0.65196 -0.21321 
2.050 469.0 68.010 23.020 62.607 0.63912 -0.33119 
2.075 469.0 69.698 24.439 52.440 0.59716 -0.45921 
2.100 469.0 64.365 25.826 41.255 0.51715 -0.58959 
2.125 480.0 69.064 26.996 29.110 0.39354 -0.70676 
2.150 480.0 64.268 27.597 15.391 0.21792 -0.79165 
2.175 480.0 66.341 27.369 0.786 0.01120 -0.81644 
2.200 480.0 70.466 26.105 346.535 -0.18401 -0.76854 
2.225 471.0 69.393 24.254 332.910 -0.34111 -0.66687 
2.250 462.0 70.411 22.013 320.448 -0.44255 -0.53586 
2.275 452.0 70.052 19.744 309.324 -0.49192 -0.40299 
2.300 444.0 69.701 17.537 298.607 -0.50448 -0.27513 
2.325 435.0 70.112 15.442 288.103 -0.48789 -0.15949 
2.350 435.0 78.758 13.638 277.987 -0.45384 -0.06368 
2.375 424.0 71.557 12.073 267.730 -0.40875 0.01620 
2.400 424.0 78.527 10.646 256.553 -0.35318 0.08445 
2.425 411.0 69.793 9.409 244.374 -0.29083 0.13950 
2.450 400.0 67.187 8.430 231.645 -0.22744 0.17997 
2.475 400.0 73.867 7.657 217.800 -0.16187 0.20869 
2.500 400.0 78.901 7.068 201.899 -0.09110 0.22661 
2.525 387.0 67.960 6.828 186.182 -0.02542 0.23471 
2.550 387.0 65.049 6.723 170.794 0.03720 0.22952 
2.575 387.0 70.986 6.874 156.288 0.09557 0.21759 
2.600 387.0 63.999 7.126 142.310 0.15052 0.19481 
2.625 387.0 77.009 7.587 129.939 0.20070 0.16804 
2.650 379.0 69.878 8.014 118.947 0.24161 0.13363 
2.675 388.0 69.522 8.461 108.923 0.27534 0.09439 
2.700 388.0 61.636 8.927 99.869 0.30207 0.05255 
2.725 399.0 67.208 9.442 90.158 0.32365 0.00089 
2.750 399.0 66.852 9.855 82.163 0.33412 -0.04599 
2.775 410.0 68.642 10.194 74.580 0.33585 -0.09264 
2.800 410.0 63.483 10.482 67.131 0.32967 -0.13905 
2.825 410.0 59.534 10.659 59.605 0.31357 -0.18393 
2.850 424.0 69.928 10.746 52.107 0.28913 -0.22502 
2.875 424.0 64.821 10.723 44.713 0.25725 -0.25984 
2.900 424.0 61.977 10.590 37.815 0.22151 -0.28541 
2.925 424.0 60.339 10.286 31.173 0.18188 -0.30064 
2.950 424.0 60.269 9.887 24.289 0.13916 -0.30836 
2.975 433.0 67.873 9.352 17.719 0.09760 -0.30547 
3.000 433.0 67.502 8.701 11.375 0.05899 -0.29320 
3.025 433.0 67.609 7.972 5.678 0.02717 -0.27333 
3.050 433.0 67.440 7.199 0.635 0.00275 -0.24865 
3.075 433.0 67.959 6.389 356.036 -0.01529 -0.22063 
3.100 419.0 71.636 5.532 352.089 -0.02642 -0.19009 
3.125 419.0 74.410 4.681 349.222 -0.03042 -0.15980 
3.150 419.0 74.898 3.819 347.709 -0.02830 -0.12988 
3.175 419.0 74.150 3.042 348.556 -0.02103 -0.10388 
3.200 419.0 73.154 2.291 353.560 -0.00896 -0.07937 
3.225 419.0 74.144 1.749 5.278 0.00561 -0.06077 
3.250 419.0 73.882 1.398 28.705 0.02342 -0.04277 
3.275 419.0 73.132 1.537 56.546 0.04475 -0.02957 
3.300 419.0 70.231 1.985 72.243 0.06595 -0.02112 
3.325 419.0 65.672 2.579 78.981 0.08826 -0.01718 
3.350 419.0 61.530 3.203 80.941 0.11020 -0.01757 
3.375 419.0 62.788 3.776 80.546 0.12963 -0.02159 
3.400 419.0 63.515 4.264 78.710 0.14541 -0.02903 
3.425 419.0 62.770 4.700 76.474 0.15880 -0.03820 
3.450 419.0 61.362 5.085 73.767 0.16952 -0.04936 
3.475 429.0 70.713 5.402 71.609 0.17789 -0.05914 
3.500 429.0 67.525 5.655 68.929 0.18302 -0.07051 
3.525 429.0 65.112 5.858 66.421 0.18611 -0.08123 
3.550 429.0 62.573 6.041 64.134 0.18835 -0.09132 
3.575 429.0 60.204 6.179 61.954 0.18889 -0.10062 
3.600 429.0 59.759 6.265 59.958 0.18780 -0.10861 
3.625 429.0 57.424 6.322 58.003 0.18565 -0.11599 
3.650 440.0 67.294 6.368 56.162 0.18311 -0.12276 
3.675 440.0 67.588 6.343 54.667 0.17915 -0.12700 
3.700 440.0 66.376 6.329 53.194 0.17544 -0.13128 
3.725 440.0 64.991 6.287 52.245 0.17212 -0.13329 
3.750 440.0 64.375 6.227 50.927 0.16742 -0.13592 
3.775 440.0 62.593 6.164 50.407 0.16453 -0.13607 
3.800 440.0 60.854 6.078 49.783 0.16079 -0.13596 
3.825 450.0 67.534 5.985 49.626 0.15799 -0.13434 
3.850 450.0 64.094 5.936 49.518 0.15648 -0.13356 
3.875 460.0 71.296 5.861 49.548 0.15460 -0.13182 
3.900 460.0 66.116 5.794 49.986 0.15384 -0.12915 
3.925 460.0 60.234 5.753 50.455 0.15382 -0.12701 
3.950 460.0 56.724 5.698 50.995 0.15354 -0.12435 
3.975 476.0 68.221 5.646 52.123 0.15457 -0.12023 
4.000 476.0 64.277 5.657 52.544 0.15575 -0.11932 
4.025 476.0 60.993 5.661 53.090 0.15699 -0.11791 
4.050 476.0 57.495 5.684 53.988 0.15944 -0.11589 
4.075 491.0 68.092 5.708 54.468 0.16106 -0.11502 
4.100 491.0 64.110 5.755 55.531 0.16450 -0.11293 
4.125 491.0 60.336 5.771 56.058 0.16598 -0.11171 
4.150 505.0 70.143 5.799 56.991 0.16859 -0.10952 
4.175 505.0 66.547 5.887 56.918 0.17096 -0.11137 
4.200 505.0 63.605 5.984 57.627 0.17515 -0.11104 
4.225 505.0 61.788 6.072 57.897 0.17819 -0.11179 
4.250 516.0 69.290 6.096 58.344 0.17976 -0.11083 
4.275 516.0 66.272 6.193 58.354 0.18260 -0.11254 
4.300 516.0 66.876 6.304 58.712 0.18654 -0.11337 
4.325 516.0 69.994 6.401 58.529 0.18900 -0.11569 
4.350 516.0 73.618 6.452 58.317 0.19005 -0.11730 
4.375 516.0 75.519 6.507 58.865 0.19276 -0.11644 
4.400 516.0 79.278 6.575 58.609 0.19421 -0.11851 
4.425 507.0 70.157 6.636 58.894 0.19656 -0.11860 
4.450 507.0 71.823 6.645 58.923 0.19687 -0.11865 
4.475 507.0 71.806 6.722 58.257 0.19773 -0.12232 
4.500 507.0 72.169 6.770 58.115 0.19879 -0.12367 
4.525 507.0 72.374 6.791 58.040 0.19925 -0.12431 
4.550 507.0 71.735 6.820 57.787 0.19953 -0.12571 
4.575 507.0 72.655 6.829 57.931 0.20009 -0.12537 
4.600 507.0 70.542 6.901 57.139 0.20038 -0.12944 
4.625 507.0 70.013 6.904 57.985 0.20236 -0.12652 
4.650 507.0 68.266 6.963 57.124 0.20213 -0.13064 
4.675 507.0 65.521 6.933 57.607 0.20237 -0.12840 
4.700 507.0 64.286 6.920 57.544 0.20184 -0.12837 
4.725 507.0 63.758 6.951 57.384 0.20238 -0.12951 
4.750 507.0 61.453 7.009 57.137 0.20346 -0.13143 
4.775 518.0 69.143 6.959 57.446 0.20274 -0.12943 
4.800 518.0 67.996 7.058 57.064 0.20469 -0.13260 
4.825 518.0 66.183 7.065 57.060 0.20489 -0.13275 
4.850 518.0 62.776 7.018 57.866 0.20537 -0.12900 
4.875 518.0 60.517 7.094 57.618 0.20700 -0.13128 
4.900 530.0 69.317 7.107 57.866 0.20792 -0.13060 
4.925 530.0 68.321 7.092 57.951 0.20769 -0.13003 
4.950 530.0 66.968 7.159 57.930 0.20955 -0.13130 
4.975 530.0 65.124 7.139 57.947 0.20904 -0.13089 
5.000 530.0 62.574 7.227 57.641 0.21083 -0.13358 
5.025 530.0 61.282 7.215 57.999 0.21134 -0.13206 
5.050 530.0 59.107 7.238 58.215 0.21248 -0.13167 
5.075 543.0 68.303 7.292 58.447 0.21458 -0.13177 
5.100 543.0 65.867 7.302 58.552 0.21510 -0.13155 
5.125 543.0 63.623 7.296 58.695 0.21527 -0.13091 
5.150 543.0 60.436 7.317 58.043 0.21434 -0.13371 
5.175 555.0 68.401 7.375 58.609 0.21733 -0.13261 
5.200 555.0 66.267 7.388 58.990 0.21859 -0.13140 
5.225 555.0 63.974 7.428 58.725 0.21914 -0.13311 
5.250 555.0 61.617 7.464 59.459 0.22186 -0.13090 
5.275 555.0 58.697 7.487 58.889 0.22123 -0.13351 
5.300 566.0 65.314 7.496 59.541 0.22299 -0.13113 
5.325 566.0 63.101 7.553 59.302 0.22410 -0.13305 
5.350 566.0 60.841 7.617 58.983 0.22518 -0.13540 
5.375 578.0 69.911 7.577 59.822 0.22598 -0.13141 
5.400 578.0 66.054 7.590 60.256 0.22736 -0.12992 
5.425 578.0 63.825 7.602 60.181 0.22755 -0.13042 
5.450 578.0 62.396 7.699 59.716 0.22929 -0.13390 
5.475 578.0 60.161 7.673 60.010 0.22922 -0.13228 
5.500 592.0 68.906 7.766 59.999 0.23191 -0.13390 
5.525 592.0 65.842 7.814 59.408 0.23190 -0.13710 
5.550 592.0 63.222 7.779 59.780 0.23177 -0.13500 
5.575 592.0 61.490 7.759 60.146 0.23204 -0.13318 
5.600 604.0 67.545 7.810 60.438 0.23420 -0.13284 
5.625 604.0 64.079 7.886 59.483 0.23415 -0.13802 
5.650 604.0 59.797 7.934 60.055 0.23692 -0.13649 
5.675 617.0 67.397 7.936 60.305 0.23757 -0.13548 
5.700 617.0 64.550 7.983 60.293 0.23893 -0.13632 
5.725 617.0 61.595 8.025 60.551 0.24076 -0.13593 
5.750 631.0 67.936 8.007 60.147 0.23928 -0.13733 
5.775 631.0 63.888 7.947 60.931 0.23936 -0.13305 
5.800 645.0 70.515 8.101 60.102 0.24188 -0.13908 
5.825 645.0 66.042 8.128 60.385 0.24335 -0.13832 
5.850 645.0 61.976 8.133 60.385 0.24351 -0.13842 
5.875 663.0 69.884 8.145 61.198 0.24581 -0.13515 
5.900 663.0 65.963 8.218 60.275 0.24572 -0.14030 
5.925 663.0 60.217 8.207 61.430 0.24816 -0.13513 
5.950 680.0 66.880 8.250 60.381 0.24691 -0.14038 
5.975 693.0 70.410 8.279 60.219 0.24735 -0.14155 
6.000 693.0 65.685 8.273 61.003 0.24909 -0.13806 
6.025 707.0 70.091 8.330 60.636 0.24985 -0.14058 
6.050 707.0 63.975 8.370 60.070 0.24963 -0.14371 
6.075 707.0 58.840 8.481 61.356 0.25602 -0.13984 
6.100 729.0 69.055 8.498 60.131 0.25347 -0.14557 
6.125 729.0 63.076 8.384 61.192 0.25279 -0.13902 
6.150 748.0 71.338 8.421 61.209 0.25392 -0.13954 
6.175 748.0 66.061 8.451 62.269 0.25734 -0.13529 
6.200 763.0 71.114 8.496 59.159 0.25091 -0.14982 
6.225 763.0 65.560 8.461 60.601 0.25359 -0.14289 
6.250 763.0 60.723 8.604 60.227 0.25679 -0.14690 
6.275 780.0 66.841 8.672 61.464 0.26188 -0.14240 
6.300 780.0 62.283 8.514 61.061 0.25627 -0.14169 
6.325 780.0 55.936 8.844 60.271 0.26384 -0.15067 
6.350 780.0 51.588 8.470 60.620 0.25389 -0.14294 
6.375 780.0 47.255 8.508 59.984 0.25340 -0.14640 
6.400 780.0 42.674 8.589 61.982 0.26073 -0.13873 
6.425 780.0 37.871 8.492 59.055 0.25052 -0.15020 
6.450 780.0 33.137 8.741 61.516 0.26404 -0.14326 
6.475 780.0 29.267 8.478 60.643 0.25417 -0.14297 
6.500 780.0 25.891 8.652 58.601 0.25389 -0.15497 

# MINIMA:
0.600 379.0 20.959 1.398 0.635 -0.79532 -0.99794 

# MAXIMA:
6.500 3918.0 95.136 44.005 356.036 0.77664 0.54324 

# PEAKS:

# END SPECTRUM


# SPECTRUM:
4

# START TIME:
16:49:19

# END TIME:
16:59:50

# THETA ANGLE:
0.00 ø

# INCIDENCE ANGLE:
70.00 ø

# ACCUMULATION NUMBER:
1

# ELLIPSOMETRIC CONFIGURATION:
+90.00 øModulator
+45.00 øAnalyser

# INTEGRATION TIME:
500 ms

# FIRST POINT:
0.6000 eV

# LAST POINT:
6.5000 eV

# INCREMENT:
0.0250 eV

# NUMBER OF POINTS:
237

# DATA:
eV Hv S0 Psi Delta Is Ic 
0.600 2997.2 60.903 14.746 293.854 -0.45025 -0.19909 
0.625 2495.6 79.904 15.508 289.713 -0.48508 -0.17381 
0.650 2095.5 77.619 16.166 285.018 -0.51657 -0.13858 
0.675 1993.9 76.801 15.853 281.584 -0.51485 -0.10553 
0.700 1593.9 82.417 16.022 276.202 -0.52746 -0.05732 
0.725 1397.0 77.730 15.561 270.226 -0.51687 -0.00204 
0.750 1295.4 70.975 14.621 264.843 -0.48652 0.04391 
0.775 1193.8 76.108 13.622 257.223 -0.44646 0.10124 
0.800 793.8 67.667 12.425 249.255 -0.39300 0.14886 
0.825 990.6 61.155 11.481 237.996 -0.33082 0.20675 
0.850 1092.2 75.355 10.209 226.429 -0.25275 0.24045 
0.875 793.8 79.525 9.154 211.839 -0.16570 0.26685 
0.900 895.4 72.715 8.522 194.488 -0.07333 0.28379 
0.925 997.0 72.942 8.640 175.991 0.02077 0.29633 
0.950 997.0 60.169 8.783 157.800 0.11404 0.27944 
0.975 800.1 71.096 9.882 141.940 0.20847 0.26625 
1.000 1098.6 74.394 10.710 127.910 0.28813 0.22438 
1.025 1098.6 75.064 11.995 116.820 0.36284 0.18344 
1.050 698.5 61.469 13.293 106.830 0.42836 0.12958 
1.075 1098.6 66.603 14.602 98.753 0.48225 0.07425 
1.100 1098.6 68.203 15.983 91.297 0.52929 0.01198 
1.125 1098.6 62.945 17.462 83.735 0.56906 -0.06247 
1.150 1098.6 73.915 19.346 76.908 0.60887 -0.14160 
1.175 1098.6 66.054 22.030 69.209 0.65012 -0.24684 
1.200 1295.4 63.463 25.717 61.610 0.68786 -0.37177 
1.225 1003.3 63.612 29.239 55.004 0.69832 -0.48889 
1.250 704.9 63.097 32.420 48.974 0.68284 -0.59413 
1.275 1301.8 69.317 35.530 42.406 0.63787 -0.69841 
1.300 1301.8 62.751 38.811 34.283 0.55018 -0.80706 
1.325 1600.2 63.373 41.806 24.513 0.41232 -0.90422 
1.350 1200.2 69.325 43.353 10.597 0.18359 -0.98132 
1.375 1600.2 61.324 43.187 357.022 -0.05185 -0.99665 
1.400 1498.6 77.430 42.505 340.930 -0.32549 -0.94154 
1.425 4000.5 46.171 38.141 329.419 -0.49424 -0.83636 
1.450 4000.5 24.103 35.765 318.702 -0.62598 -0.71259 
1.475 780.0 82.721 31.696 310.620 -0.67866 -0.58209 
1.500 557.0 64.704 30.227 303.958 -0.72159 -0.48595 
1.525 632.0 58.678 27.054 297.675 -0.71744 -0.37626 
1.550 581.0 74.477 24.685 291.876 -0.70428 -0.28278 
1.575 610.0 67.917 22.181 285.608 -0.67340 -0.18812 
1.600 595.0 64.322 19.711 278.607 -0.62788 -0.09503 
1.625 538.0 70.928 17.512 271.854 -0.57363 -0.01857 
1.650 550.0 68.748 15.161 263.028 -0.50112 0.06128 
1.675 535.0 68.495 12.985 253.138 -0.41906 0.12702 
1.700 522.0 67.836 10.916 240.661 -0.32418 0.18222 
1.725 522.0 76.500 9.051 224.841 -0.21908 0.22031 
1.750 506.0 71.338 7.765 203.883 -0.10840 0.24482 
1.775 496.0 68.524 7.190 179.198 0.00348 0.24833 
1.800 479.0 69.300 7.586 153.453 0.11696 0.23411 
1.825 479.0 73.750 8.715 132.373 0.22128 0.20186 
1.850 479.0 79.273 10.294 115.504 0.31737 0.15141 
1.875 470.0 71.808 12.100 103.043 0.39936 0.09251 
1.900 461.0 68.615 14.013 92.439 0.46946 0.02000 
1.925 461.0 72.296 15.848 84.044 0.52258 -0.05452 
1.950 461.0 76.672 17.698 76.080 0.56222 -0.13935 
1.975 461.0 80.217 19.527 68.922 0.58789 -0.22659 
2.000 452.0 70.725 21.325 62.368 0.60025 -0.31423 
2.025 452.0 67.325 23.043 55.969 0.59700 -0.40315 
2.050 452.0 61.544 24.795 49.779 0.58140 -0.49169 
2.075 452.0 67.208 26.264 42.294 0.53407 -0.58707 
2.100 452.0 66.110 28.255 35.543 0.48480 -0.67859 
2.125 452.0 63.960 29.732 27.659 0.39982 -0.76289 
2.150 452.0 60.247 30.807 18.728 0.28248 -0.83319 
2.175 452.0 58.887 31.424 8.943 0.13832 -0.87899 
2.200 452.0 60.325 31.009 359.211 -0.01216 -0.88301 
2.225 452.0 67.897 29.867 349.423 -0.15854 -0.84902 
2.250 452.0 73.739 28.123 340.566 -0.27663 -0.78406 
2.275 441.0 68.931 25.956 332.909 -0.35843 -0.70070 
2.300 441.0 74.633 23.528 325.956 -0.40981 -0.60656 
2.325 431.0 69.547 21.017 319.720 -0.43289 -0.51080 
2.350 431.0 79.999 18.574 314.544 -0.43039 -0.42359 
2.375 418.0 68.713 16.223 309.932 -0.41139 -0.34437 
2.400 418.0 73.181 13.823 305.848 -0.37610 -0.27173 
2.425 410.0 72.292 11.524 302.492 -0.33022 -0.21031 
2.450 400.0 70.265 9.341 299.995 -0.27741 -0.16013 
2.475 400.0 75.486 7.213 299.175 -0.21752 -0.12144 
2.500 400.0 68.505 5.109 301.529 -0.15122 -0.09277 
2.525 400.0 73.503 3.268 311.072 -0.08582 -0.07479 
2.550 400.0 73.167 2.081 343.472 -0.02065 -0.06959 
2.575 391.0 69.821 2.376 29.000 0.04017 -0.07246 
2.600 391.0 62.048 3.745 49.095 0.09851 -0.08535 
2.625 391.0 77.206 5.324 55.275 0.15187 -0.10526 
2.650 382.0 68.530 6.886 55.925 0.19718 -0.13338 
2.675 390.0 68.286 8.318 54.963 0.23440 -0.16435 
2.700 390.0 61.754 9.724 52.535 0.26426 -0.20252 
2.725 400.0 68.288 11.123 49.642 0.28849 -0.24517 
2.750 400.0 66.685 12.315 46.473 0.30216 -0.28701 
2.775 410.0 68.289 13.298 43.377 0.30748 -0.32541 
2.800 410.0 66.365 14.205 39.932 0.30540 -0.36483 
2.825 410.0 63.738 15.005 36.290 0.29603 -0.40315 
2.850 410.0 57.255 15.748 32.238 0.27868 -0.44189 
2.875 421.0 66.826 16.234 28.385 0.25520 -0.47227 
2.900 421.0 65.162 16.578 24.668 0.22826 -0.49701 
2.925 421.0 61.415 16.774 21.013 0.19816 -0.51587 
2.950 421.0 62.327 16.807 17.120 0.16297 -0.52908 
2.975 431.0 72.506 16.685 13.400 0.12747 -0.53507 
3.000 431.0 70.799 16.392 9.921 0.09329 -0.53338 
3.025 431.0 68.717 15.994 6.906 0.06370 -0.52590 
3.050 431.0 68.261 15.470 4.199 0.03764 -0.51277 
3.075 431.0 68.993 14.846 1.913 0.01653 -0.49506 
3.100 415.0 69.226 14.141 0.087 0.00072 -0.47380 
3.125 415.0 69.568 13.430 358.811 -0.00937 -0.45173 
3.150 415.0 71.799 12.691 358.141 -0.01391 -0.42841 
3.175 415.0 69.959 11.941 358.193 -0.01277 -0.40466 
3.200 415.0 69.560 11.282 358.886 -0.00746 -0.38364 
3.225 415.0 68.983 10.711 0.220 0.00140 -0.36522 
3.250 415.0 67.660 10.202 2.300 0.01399 -0.34837 
3.275 415.0 68.224 9.772 5.134 0.02994 -0.33320 
3.300 415.0 65.751 9.483 8.434 0.04767 -0.32149 
3.325 415.0 61.094 9.309 12.137 0.06712 -0.31211 
3.350 424.0 70.094 9.385 15.898 0.08814 -0.30945 
3.375 424.0 69.261 9.562 18.929 0.10628 -0.30989 
3.400 424.0 70.338 9.815 21.338 0.12224 -0.31292 
3.425 424.0 71.611 10.124 23.172 0.13617 -0.31815 
3.450 424.0 70.254 10.479 24.385 0.14768 -0.32578 
3.475 424.0 69.008 10.820 25.211 0.15709 -0.33366 
3.500 424.0 64.936 11.134 25.670 0.16416 -0.34155 
3.525 424.0 64.083 11.441 25.815 0.16933 -0.35004 
3.550 424.0 60.797 11.704 25.668 0.17208 -0.35807 
3.575 424.0 60.124 11.950 25.502 0.17443 -0.36567 
3.600 424.0 60.258 12.166 25.110 0.17485 -0.37309 
3.625 433.0 67.035 12.333 24.681 0.17426 -0.37920 
3.650 433.0 66.808 12.474 24.172 0.17271 -0.38480 
3.675 433.0 65.206 12.629 23.597 0.17081 -0.39102 
3.700 433.0 66.248 12.707 23.112 0.16846 -0.39472 
3.725 433.0 65.114 12.766 22.593 0.16559 -0.39794 
3.750 433.0 64.201 12.813 22.102 0.16273 -0.40071 
3.775 433.0 61.591 12.825 21.728 0.16024 -0.40210 
3.800 433.0 60.228 12.821 21.232 0.15672 -0.40338 
3.825 447.0 71.416 12.808 20.841 0.15381 -0.40404 
3.850 447.0 69.850 12.745 20.691 0.15205 -0.40259 
3.875 447.0 63.647 12.716 20.618 0.15122 -0.40193 
3.900 456.0 70.176 12.669 20.390 0.14910 -0.40113 
3.925 456.0 63.466 12.612 20.431 0.14876 -0.39935 
3.950 456.0 58.664 12.579 20.473 0.14868 -0.39825 
3.975 468.0 69.175 12.513 20.467 0.14792 -0.39632 
4.000 468.0 64.365 12.488 20.700 0.14925 -0.39498 
4.025 468.0 58.489 12.426 20.875 0.14975 -0.39268 
4.050 478.0 67.556 12.424 21.164 0.15172 -0.39187 
4.075 478.0 63.735 12.416 21.376 0.15307 -0.39107 
4.100 478.0 60.884 12.389 21.814 0.15574 -0.38911 
4.125 493.0 70.409 12.406 22.087 0.15779 -0.38885 
4.150 493.0 65.373 12.391 22.267 0.15884 -0.38792 
4.175 493.0 63.925 12.427 22.611 0.16160 -0.38800 
4.200 493.0 61.136 12.418 23.028 0.16430 -0.38654 
4.225 493.0 59.451 12.466 23.278 0.16659 -0.38722 
4.250 504.0 65.991 12.470 23.630 0.16902 -0.38631 
4.275 504.0 65.316 12.507 23.865 0.17108 -0.38669 
4.300 522.0 67.271 12.521 24.173 0.17333 -0.38615 
4.325 522.0 71.868 12.586 24.577 0.17690 -0.38681 
4.350 522.0 76.439 12.608 24.822 0.17885 -0.38668 
4.375 511.0 66.859 12.678 24.871 0.18011 -0.38854 
4.400 511.0 68.725 12.770 24.959 0.18193 -0.39087 
4.425 511.0 70.521 12.795 25.180 0.18377 -0.39089 
4.450 511.0 72.403 12.790 25.240 0.18411 -0.39054 
4.475 511.0 76.271 12.860 25.234 0.18501 -0.39256 
4.500 511.0 75.823 12.864 25.415 0.18631 -0.39210 
4.525 511.0 75.129 12.948 25.441 0.18761 -0.39438 
4.550 511.0 74.520 12.932 25.658 0.18888 -0.39321 
4.575 511.0 74.783 13.011 25.518 0.18900 -0.39593 
4.600 511.0 72.525 13.046 25.593 0.18999 -0.39667 
4.625 511.0 73.316 13.057 25.595 0.19015 -0.39696 
4.650 511.0 71.888 13.147 25.402 0.19003 -0.40015 
4.675 511.0 68.084 13.114 25.603 0.19098 -0.39856 
4.700 511.0 69.473 13.158 25.538 0.19112 -0.40000 
4.725 511.0 66.112 13.176 25.560 0.19152 -0.40043 
4.750 511.0 64.461 13.189 25.614 0.19207 -0.40064 
4.775 511.0 62.205 13.238 25.645 0.19294 -0.40190 
4.800 511.0 61.642 13.200 25.858 0.19393 -0.40013 
4.825 511.0 60.608 13.204 25.774 0.19339 -0.40052 
4.850 522.0 68.728 13.257 25.590 0.19282 -0.40263 
4.875 522.0 66.188 13.270 25.790 0.19440 -0.40233 
4.900 522.0 63.357 13.244 26.173 0.19673 -0.40027 
4.925 522.0 61.348 13.240 26.060 0.19588 -0.40054 
4.950 522.0 61.354 13.266 26.081 0.19639 -0.40122 
4.975 533.0 69.393 13.299 26.151 0.19734 -0.40190 
5.000 533.0 68.307 13.311 26.287 0.19845 -0.40176 
5.025 533.0 65.019 13.287 26.572 0.20011 -0.40011 
5.050 533.0 63.678 13.369 26.561 0.20118 -0.40243 
5.075 533.0 60.891 13.349 26.498 0.20046 -0.40210 
5.100 544.0 67.933 13.317 26.748 0.20176 -0.40032 
5.125 544.0 67.507 13.456 26.559 0.20238 -0.40486 
5.150 544.0 64.428 13.409 26.854 0.20380 -0.40250 
5.175 544.0 61.484 13.435 26.887 0.20440 -0.40311 
5.200 544.0 59.671 13.367 27.249 0.20597 -0.39994 
5.225 556.0 69.217 13.400 27.213 0.20618 -0.40097 
5.250 556.0 64.676 13.475 27.149 0.20681 -0.40328 
5.275 556.0 62.492 13.472 27.434 0.20877 -0.40216 
5.300 568.0 69.190 13.475 27.436 0.20881 -0.40223 
5.325 568.0 68.114 13.560 27.488 0.21041 -0.40439 
5.350 568.0 67.626 13.520 27.625 0.21080 -0.40280 
5.375 568.0 64.854 13.609 27.530 0.21141 -0.40559 
5.400 568.0 63.145 13.537 27.874 0.21279 -0.40233 
5.425 568.0 59.282 13.576 27.920 0.21368 -0.40322 
5.450 568.0 57.368 13.579 28.276 0.21623 -0.40199 
5.475 582.0 69.961 13.621 28.079 0.21546 -0.40388 
5.500 582.0 67.506 13.610 28.345 0.21716 -0.40256 
5.525 582.0 63.869 13.594 28.414 0.21742 -0.40187 
5.550 596.0 73.132 13.736 28.410 0.21948 -0.40575 
5.575 596.0 71.343 13.669 28.601 0.21985 -0.40321 
5.600 596.0 65.174 13.721 28.422 0.21935 -0.40530 
5.625 596.0 61.773 13.708 28.836 0.22207 -0.40334 
5.650 596.0 61.114 13.728 28.941 0.22312 -0.40349 
5.675 615.0 73.830 13.727 28.841 0.22240 -0.40386 
5.700 615.0 68.987 13.817 29.122 0.22573 -0.40518 
5.725 615.0 67.866 13.799 28.894 0.22386 -0.40561 
5.750 615.0 61.801 13.886 29.174 0.22713 -0.40684 
5.775 615.0 57.628 13.886 29.042 0.22620 -0.40737 
5.800 635.0 69.578 13.827 29.495 0.22852 -0.40399 
5.825 635.0 67.487 13.862 29.405 0.22841 -0.40527 
5.850 635.0 61.247 13.889 29.339 0.22835 -0.40627 
5.875 650.0 68.700 13.955 29.620 0.23135 -0.40692 
5.900 650.0 63.236 13.960 29.198 0.22842 -0.40874 
5.925 666.0 70.602 13.960 29.753 0.23237 -0.40651 
5.950 666.0 63.723 13.999 29.985 0.23462 -0.40662 
5.975 681.0 69.522 13.980 29.513 0.23097 -0.40803 
6.000 681.0 67.624 13.951 29.802 0.23258 -0.40607 
6.025 695.0 71.558 14.123 29.778 0.23504 -0.41078 
6.050 695.0 65.548 14.178 29.724 0.23550 -0.41247 
6.075 695.0 59.144 14.111 30.060 0.23688 -0.40929 
6.100 714.0 68.892 14.149 30.003 0.23705 -0.41053 
6.125 714.0 61.600 14.137 30.156 0.23797 -0.40959 
6.150 728.0 66.011 13.960 30.844 0.24007 -0.40202 
6.175 728.0 61.585 14.186 30.157 0.23873 -0.41089 
6.200 728.0 57.921 14.330 29.988 0.23971 -0.41540 
6.225 747.0 65.522 14.103 29.919 0.23574 -0.40964 
6.250 747.0 62.605 14.214 30.334 0.24043 -0.41089 
6.275 768.0 69.524 14.047 30.713 0.24052 -0.40488 
6.300 768.0 66.449 14.189 30.029 0.23785 -0.41148 
6.325 768.0 60.124 14.215 29.607 0.23520 -0.41391 
6.350 780.0 60.136 14.247 30.339 0.24098 -0.41174 
6.375 780.0 56.544 14.293 29.709 0.23714 -0.41559 
6.400 780.0 50.503 14.173 30.108 0.23817 -0.41073 
6.425 780.0 45.142 14.368 30.729 0.24566 -0.41326 
6.450 780.0 40.598 14.432 30.691 0.24638 -0.41511 
6.475 780.0 35.812 13.761 30.424 0.23400 -0.39846 
6.500 780.0 30.636 14.447 30.313 0.24388 -0.41712 

# MINIMA:
0.600 382.0 24.103 2.081 0.087 -0.72159 -0.99665 

# MAXIMA:
6.500 4000.5 82.721 43.353 359.211 0.69832 0.29633 

# PEAKS:

# END SPECTRUM


# SPECTRUM:
5

# START TIME:
17:00:40

# END TIME:
17:11:24

# THETA ANGLE:
0.00 ø

# INCIDENCE ANGLE:
75.00 ø

# ACCUMULATION NUMBER:
1

# ELLIPSOMETRIC CONFIGURATION:
+90.00 øModulator
+45.00 øAnalyser

# INTEGRATION TIME:
500 ms

# FIRST POINT:
0.6000 eV

# LAST POINT:
6.5000 eV

# INCREMENT:
0.0250 eV

# NUMBER OF POINTS:
237

# DATA:
eV Hv S0 Psi Delta Is Ic 
0.600 3898.9 53.704 19.644 324.849 -0.36457 -0.51775 
0.625 3600.5 77.680 19.994 321.335 -0.40149 -0.50177 
0.650 3098.8 77.225 20.134 317.858 -0.43369 -0.47927 
0.675 2997.2 82.618 19.896 315.600 -0.44778 -0.45727 
0.700 1898.7 77.090 19.361 311.383 -0.46935 -0.41355 
0.725 1600.2 74.570 18.446 307.963 -0.47328 -0.36928 
0.750 1498.6 72.591 17.154 305.381 -0.45955 -0.32636 
0.775 1301.8 69.435 15.533 302.327 -0.43604 -0.27594 
0.800 901.7 72.875 13.572 299.236 -0.39812 -0.22283 
0.825 1200.2 72.479 11.526 298.365 -0.34456 -0.18603 
0.850 1200.2 73.822 9.092 296.406 -0.27951 -0.13879 
0.875 800.1 62.995 6.458 297.091 -0.19899 -0.10179 
0.900 997.0 74.417 3.944 305.872 -0.11121 -0.08042 
0.925 997.0 57.150 2.110 346.461 -0.01723 -0.07154 
0.950 1098.6 62.529 3.226 45.827 0.08059 -0.07829 
0.975 901.7 78.603 5.683 61.904 0.17386 -0.09282 
1.000 1200.2 77.747 8.273 64.129 0.25623 -0.12426 
1.025 1200.2 78.499 10.756 63.959 0.32948 -0.16099 
1.050 800.1 77.080 13.088 61.541 0.38782 -0.21021 
1.075 1200.2 70.376 15.332 58.828 0.43635 -0.26398 
1.100 1200.2 75.733 17.449 56.186 0.47534 -0.31837 
1.125 1200.2 74.626 19.761 52.885 0.50746 -0.38400 
1.150 1098.6 69.949 22.169 49.923 0.53477 -0.44995 
1.175 1098.6 67.821 25.253 46.748 0.56206 -0.52877 
1.200 1295.4 69.167 28.669 43.971 0.58451 -0.60589 
1.225 997.0 76.277 31.721 40.409 0.57984 -0.68109 
1.250 698.5 78.362 34.393 36.687 0.55697 -0.74757 
1.275 1200.2 75.006 36.843 32.473 0.51529 -0.80968 
1.300 1200.2 72.108 39.473 27.246 0.44933 -0.87255 
1.325 1397.0 66.360 41.479 20.988 0.35547 -0.92661 
1.350 997.0 72.902 43.899 11.960 0.20707 -0.97757 
1.375 1498.6 79.605 43.862 2.914 0.05080 -0.99792 
1.400 1301.8 85.209 43.584 351.421 -0.14898 -0.98760 
1.425 3898.9 62.488 39.532 342.683 -0.29225 -0.93733 
1.450 4000.5 31.055 38.846 334.123 -0.42641 -0.87905 
1.475 780.0 81.103 36.187 327.857 -0.50706 -0.80697 
1.500 563.0 64.274 34.808 322.514 -0.57045 -0.74381 
1.525 663.0 76.367 31.832 318.221 -0.59711 -0.66832 
1.550 583.0 67.164 29.370 314.578 -0.60889 -0.59998 
1.575 618.0 65.405 26.699 311.012 -0.60576 -0.52681 
1.600 618.0 74.418 24.140 307.407 -0.59290 -0.45343 
1.625 551.0 73.228 21.528 304.142 -0.56504 -0.38317 
1.650 564.0 67.536 18.517 300.849 -0.51707 -0.30884 
1.675 550.0 70.819 15.579 297.815 -0.45762 -0.24143 
1.700 537.0 71.705 12.418 295.862 -0.37794 -0.18321 
1.725 527.0 70.799 9.199 295.082 -0.28585 -0.13379 
1.750 515.0 69.261 5.908 299.372 -0.17845 -0.10044 
1.775 506.0 69.845 3.070 323.046 -0.06430 -0.08547 
1.800 487.0 67.120 3.022 30.480 0.05340 -0.09074 
1.825 487.0 70.994 5.729 55.190 0.16311 -0.11341 
1.850 487.0 80.673 8.876 59.702 0.26326 -0.15382 
1.875 474.0 68.168 11.894 59.139 0.34623 -0.20689 
1.900 474.0 77.481 14.791 57.010 0.41407 -0.26879 
1.925 462.0 68.773 17.379 54.098 0.46180 -0.33432 
1.950 462.0 75.887 19.842 50.707 0.49420 -0.40439 
1.975 452.0 68.858 22.111 47.172 0.51150 -0.47412 
2.000 452.0 73.284 24.216 43.608 0.51602 -0.54172 
2.025 452.0 73.916 26.153 39.881 0.50737 -0.60721 
2.050 452.0 70.210 27.988 36.149 0.48890 -0.66924 
2.075 444.0 71.484 29.742 31.927 0.45559 -0.73115 
2.100 444.0 72.333 31.332 27.381 0.40854 -0.78882 
2.125 444.0 71.157 32.801 22.467 0.34803 -0.84157 
2.150 444.0 73.759 33.968 16.826 0.26826 -0.88708 
2.175 444.0 72.306 34.749 10.481 0.17038 -0.92103 
2.200 444.0 73.401 34.866 3.995 0.06536 -0.93580 
2.225 444.0 77.784 34.518 357.300 -0.04399 -0.93277 
2.250 435.0 71.707 33.440 351.196 -0.14077 -0.90885 
2.275 435.0 77.332 31.947 345.731 -0.22133 -0.87028 
2.300 424.0 68.454 30.060 341.012 -0.28212 -0.81989 
2.325 424.0 74.828 27.937 337.017 -0.32322 -0.76209 
2.350 414.0 67.490 25.809 334.082 -0.34263 -0.70504 
2.375 414.0 72.014 23.655 332.035 -0.34467 -0.64920 
2.400 414.0 78.504 21.506 330.700 -0.33383 -0.59488 
2.425 405.0 71.617 19.310 330.492 -0.30743 -0.54320 
2.450 395.0 69.800 17.369 331.351 -0.27321 -0.50007 
2.475 395.0 76.242 15.561 333.693 -0.22906 -0.46333 
2.500 411.0 68.706 13.920 337.905 -0.17566 -0.43271 
2.525 411.0 75.784 12.709 343.891 -0.11909 -0.41235 
2.550 411.0 74.578 11.944 351.230 -0.06174 -0.40021 
2.575 400.0 68.579 11.671 359.098 -0.00623 -0.39617 
2.600 400.0 62.877 11.915 7.094 0.04989 -0.40092 
2.625 400.0 76.135 12.565 13.605 0.09990 -0.41276 
2.650 391.0 71.559 13.498 18.527 0.14424 -0.43040 
2.675 391.0 60.561 14.548 21.766 0.18032 -0.45161 
2.700 402.0 68.302 15.730 23.789 0.21052 -0.47757 
2.725 402.0 64.061 17.046 24.687 0.23410 -0.50929 
2.750 402.0 67.176 18.190 24.802 0.24881 -0.53843 
2.775 402.0 57.848 19.256 24.205 0.25530 -0.56794 
2.800 414.0 68.510 20.216 23.225 0.25574 -0.59599 
2.825 414.0 67.911 21.085 21.860 0.24996 -0.62305 
2.850 414.0 64.059 21.919 20.138 0.23846 -0.65029 
2.875 414.0 61.448 22.554 18.253 0.22189 -0.67280 
2.900 414.0 60.682 23.061 16.311 0.20244 -0.69181 
2.925 414.0 59.849 23.411 14.319 0.18035 -0.70658 
2.950 414.0 59.752 23.658 12.119 0.15432 -0.71872 
2.975 425.0 69.706 23.749 9.941 0.12727 -0.72617 
3.000 425.0 67.710 23.703 7.808 0.10001 -0.72934 
3.025 425.0 67.522 23.522 5.926 0.07556 -0.72797 
3.050 425.0 67.112 23.201 4.270 0.05392 -0.72219 
3.075 425.0 65.086 22.832 2.814 0.03511 -0.71440 
3.100 411.0 68.869 22.336 1.586 0.01945 -0.70278 
3.125 411.0 69.447 21.830 0.668 0.00805 -0.69032 
3.150 411.0 67.919 21.239 0.041 0.00049 -0.67530 
3.175 411.0 67.966 20.662 359.774 -0.00261 -0.66032 
3.200 411.0 65.833 20.124 359.856 -0.00162 -0.64608 
3.225 411.0 66.304 19.606 0.220 0.00242 -0.63218 
3.250 411.0 65.035 19.156 0.919 0.00994 -0.61987 
3.275 411.0 64.766 18.741 1.944 0.02064 -0.60816 
3.300 411.0 62.327 18.390 3.248 0.03392 -0.59779 
3.325 411.0 58.066 18.160 4.701 0.04854 -0.59031 
3.350 421.0 66.801 18.035 6.304 0.06465 -0.58521 
3.375 421.0 67.141 18.023 7.831 0.08017 -0.58296 
3.400 421.0 69.618 18.124 9.104 0.09356 -0.58384 
3.425 421.0 71.065 18.274 10.281 0.10628 -0.58595 
3.450 421.0 70.581 18.485 11.212 0.11694 -0.58992 
3.475 421.0 68.202 18.716 11.900 0.12533 -0.59476 
3.500 421.0 66.026 18.936 12.433 0.13217 -0.59951 
3.525 421.0 66.586 19.172 12.810 0.13755 -0.60494 
3.550 421.0 63.651 19.396 13.065 0.14163 -0.61027 
3.575 421.0 61.861 19.602 13.217 0.14452 -0.61533 
3.600 421.0 61.572 19.783 13.182 0.14526 -0.62019 
3.625 421.0 61.500 19.981 13.132 0.14592 -0.62548 
3.650 430.0 70.140 20.099 12.978 0.14495 -0.62894 
3.675 430.0 69.651 20.255 12.860 0.14458 -0.63330 
3.700 430.0 70.443 20.332 12.685 0.14309 -0.63572 
3.725 430.0 70.921 20.421 12.491 0.14145 -0.63850 
3.750 430.0 67.545 20.492 12.272 0.13940 -0.64087 
3.775 430.0 67.755 20.555 12.092 0.13774 -0.64292 
3.800 430.0 65.519 20.548 11.853 0.13501 -0.64332 
3.825 430.0 61.697 20.592 11.701 0.13354 -0.64480 
3.850 430.0 59.068 20.570 11.628 0.13261 -0.64439 
3.875 442.0 69.813 20.587 11.384 0.12994 -0.64539 
3.900 442.0 63.070 20.531 11.374 0.12955 -0.64398 
3.925 452.0 69.132 20.515 11.273 0.12832 -0.64378 
3.950 452.0 65.948 20.489 11.221 0.12761 -0.64324 
3.975 452.0 62.059 20.467 11.246 0.12778 -0.64261 
4.000 463.0 70.175 20.399 11.231 0.12726 -0.64089 
4.025 463.0 65.625 20.393 11.305 0.12806 -0.64055 
4.050 463.0 62.747 20.393 11.422 0.12936 -0.64029 
4.075 463.0 58.162 20.364 11.539 0.13051 -0.63927 
4.100 477.0 69.773 20.304 11.631 0.13123 -0.63752 
4.125 477.0 65.710 20.299 11.841 0.13353 -0.63691 
4.150 477.0 61.480 20.293 12.004 0.13531 -0.63637 
4.175 477.0 60.084 20.297 12.102 0.13642 -0.63625 
4.200 490.0 69.766 20.318 12.245 0.13812 -0.63642 
4.225 490.0 68.586 20.319 12.435 0.14024 -0.63599 
4.250 490.0 65.433 20.313 12.590 0.14192 -0.63545 
4.275 490.0 64.210 20.339 12.716 0.14347 -0.63583 
4.300 525.0 68.549 20.327 13.045 0.14705 -0.63468 
4.325 525.0 71.319 20.300 13.296 0.14966 -0.63333 
4.350 525.0 76.198 20.365 13.370 0.15088 -0.63480 
4.375 525.0 77.787 20.342 13.551 0.15275 -0.63375 
4.400 516.0 72.412 20.371 13.687 0.15443 -0.63411 
4.425 516.0 73.162 20.445 13.732 0.15539 -0.63589 
4.450 516.0 75.360 20.470 13.691 0.15509 -0.63666 
4.475 516.0 73.408 20.538 13.812 0.15687 -0.63807 
4.500 516.0 77.484 20.600 13.948 0.15877 -0.63927 
4.525 516.0 76.840 20.549 13.974 0.15873 -0.63789 
4.550 516.0 79.654 20.621 14.030 0.15982 -0.63957 
4.575 516.0 77.091 20.660 14.067 0.16048 -0.64046 
4.600 516.0 75.868 20.699 14.105 0.16116 -0.64136 
4.625 516.0 78.367 20.706 14.126 0.16144 -0.64147 
4.650 516.0 74.879 20.716 14.127 0.16151 -0.64172 
4.675 516.0 74.368 20.712 14.217 0.16250 -0.64137 
4.700 516.0 71.658 20.753 14.159 0.16210 -0.64258 
4.725 516.0 70.526 20.759 14.181 0.16239 -0.64266 
4.750 516.0 68.504 20.802 14.229 0.16321 -0.64360 
4.775 516.0 66.960 20.809 14.240 0.16337 -0.64375 
4.800 516.0 67.116 20.761 14.303 0.16377 -0.64237 
4.825 516.0 63.879 20.807 14.376 0.16489 -0.64332 
4.850 516.0 62.844 20.821 14.287 0.16398 -0.64392 
4.875 526.0 69.287 20.837 14.408 0.16545 -0.64398 
4.900 526.0 66.205 20.823 14.526 0.16668 -0.64329 
4.925 526.0 67.605 20.847 14.468 0.16618 -0.64407 
4.950 526.0 63.421 20.861 14.558 0.16728 -0.64415 
4.975 526.0 64.645 20.891 14.536 0.16723 -0.64496 
5.000 526.0 61.125 20.918 14.610 0.16825 -0.64544 
5.025 526.0 61.234 20.876 14.713 0.16912 -0.64407 
5.050 526.0 57.880 20.865 14.730 0.16924 -0.64374 
5.075 538.0 67.958 20.885 14.873 0.17099 -0.64383 
5.100 538.0 67.089 20.950 14.850 0.17116 -0.64553 
5.125 538.0 65.078 20.951 14.833 0.17097 -0.64561 
5.150 538.0 61.700 20.915 15.007 0.17269 -0.64417 
5.175 550.0 71.147 20.935 15.089 0.17374 -0.64443 
5.200 550.0 64.721 20.953 15.132 0.17436 -0.64476 
5.225 550.0 65.143 20.981 15.210 0.17542 -0.64521 
5.250 550.0 63.589 21.053 15.304 0.17698 -0.64674 
5.275 550.0 61.246 20.997 15.258 0.17607 -0.64546 
5.300 550.0 58.976 20.993 15.387 0.17750 -0.64496 
5.325 564.0 69.494 20.996 15.439 0.17811 -0.64489 
5.350 564.0 66.160 21.054 15.548 0.17974 -0.64600 
5.375 564.0 66.214 21.032 15.502 0.17907 -0.64559 
5.400 564.0 64.242 21.056 15.517 0.17939 -0.64613 
5.425 564.0 62.669 20.986 15.722 0.18122 -0.64374 
5.450 564.0 59.185 21.036 15.724 0.18160 -0.64500 
5.475 579.0 70.885 21.055 15.798 0.18256 -0.64524 
5.500 579.0 67.344 21.007 15.866 0.18298 -0.64381 
5.525 579.0 64.589 21.051 15.973 0.18450 -0.64458 
5.550 579.0 64.448 21.093 15.954 0.18458 -0.64568 
5.575 579.0 60.415 21.105 15.973 0.18488 -0.64590 
5.600 579.0 58.773 21.091 16.272 0.18815 -0.64459 
5.625 596.0 68.825 21.144 16.067 0.18622 -0.64657 
5.650 596.0 65.191 21.114 16.442 0.19023 -0.64460 
5.675 596.0 65.474 21.181 16.221 0.18823 -0.64698 
5.700 596.0 61.061 21.215 16.303 0.18940 -0.64757 
5.725 611.0 70.444 21.234 16.292 0.18941 -0.64806 
5.750 611.0 67.712 21.189 16.470 0.19110 -0.64637 
5.775 611.0 61.967 21.203 16.607 0.19275 -0.64626 
5.800 625.0 70.232 21.280 16.520 0.19233 -0.64845 
5.825 625.0 64.850 21.345 16.547 0.19311 -0.64995 
5.850 625.0 62.609 21.274 16.639 0.19363 -0.64789 
5.875 642.0 71.726 21.418 16.877 0.19739 -0.65063 
5.900 642.0 64.855 21.354 16.757 0.19555 -0.64945 
5.925 642.0 62.068 21.289 16.587 0.19314 -0.64844 
5.950 660.0 70.453 21.282 16.906 0.19670 -0.64719 
5.975 660.0 64.419 21.398 16.811 0.19649 -0.65035 
6.000 673.0 67.868 21.327 16.793 0.19576 -0.64868 
6.025 673.0 63.806 21.400 17.044 0.19915 -0.64961 
6.050 686.0 68.544 21.484 16.997 0.19925 -0.65182 
6.075 686.0 63.926 21.548 16.797 0.19743 -0.65407 
6.100 704.0 70.736 21.457 17.216 0.20153 -0.65039 
6.125 704.0 64.958 21.544 17.249 0.20256 -0.65240 
6.150 704.0 60.192 21.396 17.158 0.20041 -0.64910 
6.175 722.0 68.930 21.573 17.124 0.20136 -0.65355 
6.200 722.0 64.806 21.327 17.243 0.20084 -0.64711 
6.225 722.0 60.952 21.332 17.249 0.20095 -0.64723 
6.250 738.0 64.668 21.566 16.945 0.19926 -0.65400 
6.275 738.0 60.300 21.604 17.026 0.20047 -0.65465 
6.300 755.0 67.756 21.814 17.411 0.20646 -0.65835 
6.325 755.0 60.652 21.526 17.253 0.20247 -0.65195 
6.350 755.0 57.106 21.600 17.200 0.20242 -0.65393 
6.375 778.0 64.289 21.339 16.587 0.19351 -0.64967 
6.400 778.0 57.671 21.489 17.251 0.20218 -0.65106 
6.425 780.0 53.654 21.693 17.616 0.20789 -0.65471 
6.450 780.0 47.205 21.747 17.242 0.20401 -0.65735 
6.475 780.0 42.864 21.535 17.595 0.20643 -0.65093 
6.500 780.0 36.316 21.787 17.674 0.20927 -0.65675 

# MINIMA:
0.600 391.0 31.055 2.110 0.041 -0.60889 -0.99792 

# MAXIMA:
6.500 4000.5 85.209 43.899 359.856 0.58451 -0.07154 

# PEAKS:

# END SPECTRUM

