## SPECTRUM TYPE:
Spectroscopic

## DATE:
11/9/2011

## COMMENTS:

## NUMBER OF SPECTRUM:
5

## ELLIPSOMETRIC CONFIGURATION:
-45.00 øModulator
+45.00 øAnalyser

## UNIT:
eV


# SPECTRUM:
1

# START TIME:
14:18:41

# END TIME:
14:30:40

# THETA ANGLE:
0.00 ø

# INCIDENCE ANGLE:
55.00 ø

# ACCUMULATION NUMBER:
1

# ELLIPSOMETRIC CONFIGURATION:
-45.00 øModulator
+45.00 øAnalyser

# INTEGRATION TIME:
500 ms

# FIRST POINT:
0.6000 eV

# LAST POINT:
6.5000 eV

# INCREMENT:
0.0250 eV

# NUMBER OF POINTS:
237

# DATA:
eV Hv S0 Psi Delta Is Ic 
0.600 3898.9 53.193 28.398 331.852 -0.39473 -0.54764 
0.625 3898.9 77.808 28.602 331.313 -0.40352 -0.54165 
0.650 3600.5 79.815 28.713 331.604 -0.40075 -0.53839 
0.675 3403.6 78.927 28.951 332.458 -0.39172 -0.53138 
0.700 2406.7 77.265 28.991 334.901 -0.35965 -0.53020 
0.725 2006.6 77.231 29.125 337.458 -0.32598 -0.52623 
0.750 1905.0 78.330 29.151 340.499 -0.28403 -0.52545 
0.775 1606.6 77.113 29.375 343.805 -0.23845 -0.51879 
0.800 1104.9 70.361 29.334 347.372 -0.18673 -0.52000 
0.825 1403.4 69.176 29.462 351.122 -0.13218 -0.51617 
0.850 1403.4 67.967 29.459 354.887 -0.07633 -0.51626 
0.875 1003.3 65.209 29.564 358.777 -0.01832 -0.51312 
0.900 1200.2 72.677 29.597 2.733 0.04096 -0.51214 
0.925 1301.8 71.325 29.556 6.637 0.09919 -0.51336 
0.950 1301.8 63.493 29.542 10.534 0.15685 -0.51378 
0.975 1003.3 66.019 29.455 14.456 0.21378 -0.51638 
1.000 1301.8 64.404 29.437 18.091 0.26582 -0.51693 
1.025 1301.8 67.425 29.353 21.632 0.31501 -0.51943 
1.050 901.7 66.934 29.140 25.124 0.36116 -0.52576 
1.075 1301.8 63.920 29.057 28.163 0.40077 -0.52822 
1.100 1301.8 67.176 28.808 31.373 0.43964 -0.53559 
1.125 1301.8 64.033 28.705 34.656 0.47911 -0.53863 
1.150 1301.8 70.453 28.507 38.500 0.52217 -0.54443 
1.175 1403.4 69.925 28.251 44.948 0.58913 -0.55191 
1.200 1803.4 61.981 28.344 57.741 0.70670 -0.54921 
1.225 1606.6 78.647 29.847 73.015 0.82568 -0.50462 
1.250 1104.9 70.235 32.987 75.022 0.88234 -0.40714 
1.275 2406.7 62.626 37.389 57.749 0.81604 -0.26257 
1.300 3206.8 61.518 42.831 28.887 0.48170 -0.07564 
1.325 3905.3 54.882 45.296 357.616 -0.04160 0.01035 
1.350 2603.5 78.774 42.634 318.590 -0.65919 -0.08248 
1.375 2603.5 61.040 38.078 294.692 -0.88217 -0.23927 
1.400 2101.9 77.849 33.135 275.737 -0.91087 -0.40242 
1.425 3898.9 30.922 30.608 283.714 -0.85146 -0.48150 
1.450 4000.5 17.934 28.578 293.067 -0.77298 -0.54236 
1.475 780.0 46.453 27.183 305.233 -0.66386 -0.58262 
1.500 605.0 63.433 26.571 309.570 -0.61678 -0.59983 
1.525 709.0 70.481 26.078 316.821 -0.54036 -0.61352 
1.550 636.0 68.006 25.924 323.062 -0.47257 -0.61774 
1.575 667.0 64.871 25.908 329.347 -0.40074 -0.61820 
1.600 667.0 75.758 25.904 335.165 -0.33010 -0.61831 
1.625 593.0 72.773 26.061 340.661 -0.26139 -0.61397 
1.650 593.0 58.461 26.004 346.298 -0.18668 -0.61556 
1.675 593.0 72.930 26.087 351.563 -0.11590 -0.61327 
1.700 575.0 70.767 26.112 356.911 -0.04260 -0.61256 
1.725 563.0 68.948 26.014 2.011 0.02766 -0.61527 
1.750 553.0 71.158 25.859 7.262 0.09922 -0.61953 
1.775 543.0 70.117 25.737 12.499 0.16931 -0.62286 
1.800 525.0 69.160 25.481 17.872 0.23836 -0.62985 
1.825 525.0 74.352 25.215 23.219 0.30391 -0.63702 
1.850 515.0 68.613 24.848 28.803 0.36743 -0.64685 
1.875 515.0 70.552 24.466 34.487 0.42690 -0.65695 
1.900 515.0 74.868 24.046 40.659 0.48491 -0.66793 
1.925 515.0 75.553 23.615 47.171 0.53837 -0.67905 
1.950 515.0 74.792 23.143 54.254 0.58664 -0.69106 
1.975 515.0 72.589 22.691 62.611 0.63200 -0.70239 
2.000 515.0 66.907 22.233 72.647 0.66860 -0.71367 
2.025 526.0 67.098 21.866 83.763 0.68719 -0.72259 
2.050 542.0 67.209 21.400 79.943 0.66901 -0.73372 
2.075 542.0 64.103 20.911 58.815 0.57045 -0.74523 
2.100 555.0 68.507 20.236 33.484 0.35809 -0.76072 
2.125 555.0 66.349 19.381 3.797 0.04146 -0.77975 
2.150 555.0 72.191 18.496 331.934 -0.28309 -0.79872 
2.175 540.0 71.559 17.947 302.793 -0.49286 -0.81010 
2.200 521.0 70.569 17.922 280.549 -0.57567 -0.81062 
2.225 504.0 70.930 18.120 281.855 -0.57856 -0.80655 
2.250 486.0 69.179 18.501 296.005 -0.54090 -0.79862 
2.275 474.0 70.786 18.869 306.794 -0.49012 -0.79083 
2.300 460.0 67.014 19.322 316.545 -0.42951 -0.78104 
2.325 452.0 70.395 19.684 324.841 -0.36525 -0.77310 
2.350 443.0 70.163 19.994 331.840 -0.30328 -0.76618 
2.375 435.0 68.586 20.282 338.036 -0.24323 -0.75968 
2.400 435.0 75.162 20.471 343.831 -0.18248 -0.75538 
2.425 424.0 69.875 20.670 349.303 -0.12260 -0.75081 
2.450 414.0 69.449 20.711 354.203 -0.06683 -0.74986 
2.475 414.0 75.344 20.689 358.825 -0.01356 -0.75037 
2.500 448.0 66.720 20.602 3.600 0.04136 -0.75236 
2.525 448.0 70.761 20.407 8.006 0.09103 -0.75683 
2.550 448.0 67.396 20.152 12.299 0.13778 -0.76262 
2.575 448.0 73.377 19.818 16.341 0.17948 -0.77011 
2.600 448.0 65.194 19.353 20.510 0.21909 -0.78037 
2.625 448.0 76.474 18.771 24.656 0.25419 -0.79291 
2.650 448.0 79.091 18.158 28.563 0.28316 -0.80576 
2.675 448.0 64.673 17.419 32.287 0.30515 -0.82077 
2.700 459.0 67.392 16.543 36.212 0.32251 -0.83785 
2.725 470.0 69.255 15.389 40.200 0.33029 -0.85916 
2.750 470.0 68.931 14.197 43.772 0.32898 -0.87969 
2.775 481.0 65.995 12.948 46.552 0.31707 -0.89959 
2.800 481.0 60.940 11.515 48.935 0.29497 -0.92030 
2.825 493.0 68.398 9.965 49.848 0.26054 -0.94011 
2.850 493.0 62.242 8.332 48.427 0.21453 -0.95800 
2.875 503.0 68.453 6.853 43.454 0.16297 -0.97152 
2.900 503.0 67.253 5.906 32.714 0.11064 -0.97882 
2.925 503.0 68.014 5.581 18.493 0.06140 -0.98108 
2.950 503.0 71.566 5.958 4.243 0.01528 -0.97845 
2.975 503.0 72.627 6.874 355.314 -0.01941 -0.97135 
3.000 503.0 76.607 7.994 350.714 -0.04445 -0.96132 
3.025 494.0 70.202 9.132 349.324 -0.05806 -0.94962 
3.050 494.0 73.045 10.166 349.588 -0.06280 -0.93769 
3.075 494.0 76.272 11.038 350.863 -0.05968 -0.92669 
3.100 468.0 70.354 11.886 352.645 -0.05160 -0.91516 
3.125 468.0 74.368 12.630 354.878 -0.03809 -0.90438 
3.150 468.0 75.712 13.226 357.173 -0.02197 -0.89531 
3.175 468.0 76.387 13.781 359.689 -0.00251 -0.88652 
3.200 468.0 77.112 14.143 2.107 0.01742 -0.88059 
3.225 468.0 77.701 14.461 4.502 0.03796 -0.87528 
3.250 460.0 69.212 14.693 6.900 0.05895 -0.87133 
3.275 460.0 68.489 14.848 9.359 0.08056 -0.86866 
3.300 460.0 65.984 14.870 11.783 0.10130 -0.86828 
3.325 460.0 62.058 14.870 14.159 0.12135 -0.86828 
3.350 460.0 58.587 14.734 16.426 0.13910 -0.87064 
3.375 471.0 70.895 14.532 18.419 0.15349 -0.87408 
3.400 471.0 70.983 14.247 20.208 0.16480 -0.87886 
3.425 471.0 70.150 13.974 21.598 0.17252 -0.88337 
3.450 471.0 68.221 13.678 22.758 0.17776 -0.88817 
3.475 471.0 66.594 13.327 23.504 0.17891 -0.89374 
3.500 471.0 64.450 13.074 23.984 0.17914 -0.89765 
3.525 471.0 61.754 12.798 24.214 0.17720 -0.90186 
3.550 471.0 60.129 12.551 24.224 0.17407 -0.90555 
3.575 482.0 68.830 12.235 24.275 0.17029 -0.91018 
3.600 482.0 67.824 12.082 23.897 0.16582 -0.91238 
3.625 482.0 66.807 11.860 23.351 0.15944 -0.91553 
3.650 482.0 65.814 11.723 22.862 0.15459 -0.91743 
3.675 482.0 65.563 11.608 22.120 0.14843 -0.91903 
3.700 482.0 65.012 11.520 21.528 0.14361 -0.92023 
3.725 482.0 64.925 11.562 20.782 0.13935 -0.91966 
3.750 482.0 64.700 11.508 20.165 0.13478 -0.92040 
3.775 482.0 63.907 11.617 19.582 0.13221 -0.91890 
3.800 482.0 62.388 11.676 19.079 0.12957 -0.91808 
3.825 482.0 60.187 11.748 18.876 0.12898 -0.91709 
3.850 493.0 67.805 11.773 18.733 0.12829 -0.91675 
3.875 493.0 63.891 11.988 18.366 0.12804 -0.91371 
3.900 493.0 60.192 12.007 18.495 0.12910 -0.91344 
3.925 505.0 67.057 12.256 18.259 0.12999 -0.90987 
3.950 505.0 64.477 12.253 18.709 0.13305 -0.90992 
3.975 505.0 60.865 12.438 18.581 0.13403 -0.90723 
4.000 516.0 68.378 12.391 19.181 0.13771 -0.90791 
4.025 516.0 64.714 12.502 19.240 0.13929 -0.90627 
4.050 516.0 61.274 12.571 19.799 0.14391 -0.90525 
4.075 516.0 58.512 12.623 20.230 0.14748 -0.90449 
4.100 531.0 68.292 12.652 20.574 0.15020 -0.90406 
4.125 531.0 64.582 12.739 20.826 0.15294 -0.90275 
4.150 531.0 61.579 12.711 21.182 0.15511 -0.90317 
4.175 531.0 59.057 12.753 21.762 0.15964 -0.90254 
4.200 544.0 68.558 12.696 22.192 0.16197 -0.90339 
4.225 544.0 66.469 12.737 22.531 0.16481 -0.90278 
4.250 544.0 64.885 12.718 23.017 0.16794 -0.90306 
4.275 544.0 61.573 12.673 23.389 0.16994 -0.90373 
4.300 616.0 75.246 12.626 24.224 0.17503 -0.90444 
4.325 616.0 80.206 12.623 24.480 0.17673 -0.90449 
4.350 603.0 71.326 12.638 24.700 0.17841 -0.90427 
4.375 603.0 75.006 12.661 24.755 0.17909 -0.90392 
4.400 603.0 77.699 12.652 24.816 0.17939 -0.90406 
4.425 591.0 68.765 12.608 25.099 0.18071 -0.90471 
4.450 591.0 70.213 12.500 25.221 0.18008 -0.90631 
4.475 591.0 71.879 12.533 25.213 0.18048 -0.90582 
4.500 591.0 73.312 12.540 25.307 0.18119 -0.90572 
4.525 591.0 73.432 12.472 25.418 0.18101 -0.90673 
4.550 591.0 74.112 12.470 25.497 0.18151 -0.90676 
4.575 591.0 74.118 12.444 25.725 0.18267 -0.90713 
4.600 591.0 72.574 12.436 25.474 0.18090 -0.90725 
4.625 591.0 73.571 12.391 25.830 0.18263 -0.90791 
4.650 591.0 72.724 12.475 25.606 0.18230 -0.90668 
4.675 591.0 71.178 12.448 25.908 0.18393 -0.90708 
4.700 591.0 69.802 12.493 25.771 0.18364 -0.90642 
4.725 591.0 68.781 12.497 25.805 0.18393 -0.90635 
4.750 591.0 70.299 12.426 25.191 0.17888 -0.90740 
4.775 591.0 65.838 12.487 25.926 0.18459 -0.90651 
4.800 591.0 64.639 12.507 26.072 0.18584 -0.90620 
4.825 591.0 63.125 12.523 26.059 0.18597 -0.90597 
4.850 591.0 61.503 12.548 26.283 0.18781 -0.90560 
4.875 591.0 59.965 12.553 26.499 0.18932 -0.90552 
4.900 591.0 59.021 12.628 26.334 0.18928 -0.90441 
4.925 604.0 68.070 12.523 26.692 0.19016 -0.90597 
4.950 604.0 65.928 12.552 26.697 0.19060 -0.90555 
4.975 604.0 65.868 12.605 27.036 0.19360 -0.90476 
5.000 604.0 64.925 12.537 27.172 0.19353 -0.90576 
5.025 604.0 62.975 12.717 27.016 0.19508 -0.90309 
5.050 604.0 61.952 12.627 27.256 0.19538 -0.90443 
5.075 604.0 60.323 12.618 27.551 0.19720 -0.90456 
5.100 604.0 59.390 12.628 27.501 0.19703 -0.90441 
5.125 620.0 69.500 12.613 27.832 0.19898 -0.90463 
5.150 620.0 67.311 12.659 27.802 0.19947 -0.90394 
5.175 620.0 66.466 12.735 27.955 0.20159 -0.90281 
5.200 620.0 64.165 12.768 27.730 0.20059 -0.90231 
5.225 620.0 61.950 12.680 28.169 0.20218 -0.90364 
5.250 620.0 60.704 12.669 28.439 0.20380 -0.90380 
5.275 633.0 67.991 12.763 28.248 0.20396 -0.90238 
5.300 633.0 66.554 12.639 28.868 0.20616 -0.90425 
5.325 633.0 64.529 12.677 28.929 0.20714 -0.90368 
5.350 633.0 61.654 12.606 28.933 0.20608 -0.90473 
5.375 633.0 60.829 12.721 28.826 0.20714 -0.90302 
5.400 633.0 59.547 12.829 28.936 0.20950 -0.90140 
5.425 647.0 68.215 12.869 28.838 0.20945 -0.90079 
5.450 647.0 66.754 12.705 29.459 0.21102 -0.90327 
5.475 647.0 64.597 12.896 29.119 0.21173 -0.90038 
5.500 647.0 62.805 12.821 29.158 0.21084 -0.90152 
5.525 647.0 61.299 12.776 29.581 0.21293 -0.90219 
5.550 647.0 59.118 12.840 29.478 0.21325 -0.90123 
5.575 647.0 57.548 12.941 29.566 0.21540 -0.89969 
5.600 664.0 66.792 12.787 29.859 0.21492 -0.90203 
5.625 664.0 64.836 12.971 29.843 0.21770 -0.89923 
5.650 664.0 62.101 12.840 30.156 0.21770 -0.90122 
5.675 664.0 58.950 12.762 30.367 0.21782 -0.90241 
5.700 679.0 67.572 13.035 29.897 0.21906 -0.89825 
5.725 679.0 63.722 12.775 30.736 0.22043 -0.90220 
5.750 679.0 62.439 12.802 30.963 0.22234 -0.90180 
5.775 692.0 67.631 12.945 31.222 0.22633 -0.89964 
5.800 692.0 63.562 12.950 31.002 0.22498 -0.89956 
5.825 692.0 59.375 12.920 31.117 0.22524 -0.90002 
5.850 708.0 66.038 12.954 30.916 0.22449 -0.89949 
5.875 708.0 62.022 13.142 30.827 0.22692 -0.89662 
5.900 708.0 58.637 12.949 31.508 0.22827 -0.89957 
5.925 725.0 64.470 13.075 31.915 0.23300 -0.89764 
5.950 725.0 59.806 13.015 30.719 0.22417 -0.89856 
5.975 745.0 68.111 13.142 31.238 0.22965 -0.89661 
6.000 745.0 63.476 12.826 32.251 0.23101 -0.90144 
6.025 745.0 58.957 13.087 31.359 0.22954 -0.89746 
6.050 766.0 67.292 13.048 31.667 0.23094 -0.89805 
6.075 766.0 62.500 12.887 31.929 0.22996 -0.90052 
6.100 766.0 58.245 12.722 33.097 0.23461 -0.90300 
6.125 780.0 61.540 13.091 31.999 0.23381 -0.89740 
6.150 780.0 57.417 12.957 32.949 0.23770 -0.89945 
6.175 780.0 53.272 13.382 31.553 0.23565 -0.89287 
6.200 780.0 50.002 13.389 31.075 0.23255 -0.89276 
6.225 780.0 47.246 13.204 32.038 0.23594 -0.89564 
6.250 780.0 44.074 13.104 31.667 0.23185 -0.89720 
6.275 780.0 41.282 13.237 32.880 0.24201 -0.89514 
6.300 780.0 38.408 13.344 31.869 0.23713 -0.89346 
6.325 780.0 35.639 13.100 32.154 0.23497 -0.89726 
6.350 780.0 32.965 12.696 34.405 0.24230 -0.90339 
6.375 780.0 30.105 13.010 33.150 0.23989 -0.89864 
6.400 780.0 27.002 12.975 32.834 0.23727 -0.89917 
6.425 780.0 24.350 13.475 32.865 0.24594 -0.89140 
6.450 780.0 21.658 12.650 33.317 0.23474 -0.90408 
6.475 780.0 19.352 12.830 34.783 0.24703 -0.90138 
6.500 780.0 16.599 13.469 31.883 0.23928 -0.89150 

# MINIMA:
0.600 414.0 16.599 5.581 2.011 -0.91087 -0.98108 

# MAXIMA:
6.500 4000.5 80.206 45.296 359.689 0.88234 0.01035 

# PEAKS:

# END SPECTRUM


# SPECTRUM:
2

# START TIME:
14:31:31

# END TIME:
14:42:19

# THETA ANGLE:
0.00 ø

# INCIDENCE ANGLE:
60.00 ø

# ACCUMULATION NUMBER:
1

# ELLIPSOMETRIC CONFIGURATION:
-45.00 øModulator
+45.00 øAnalyser

# INTEGRATION TIME:
500 ms

# FIRST POINT:
0.6000 eV

# LAST POINT:
6.5000 eV

# INCREMENT:
0.0250 eV

# NUMBER OF POINTS:
237

# DATA:
eV Hv S0 Psi Delta Is Ic 
0.600 3898.9 44.579 25.347 324.284 -0.45171 -0.63345 
0.625 3898.9 65.422 25.415 322.348 -0.47359 -0.63163 
0.650 3898.9 70.441 25.272 321.633 -0.47924 -0.63549 
0.675 3898.9 73.461 25.226 322.383 -0.47066 -0.63672 
0.700 3098.8 78.668 25.038 324.724 -0.44289 -0.64177 
0.725 2501.9 76.704 25.055 327.621 -0.41089 -0.64132 
0.750 2400.3 77.248 24.899 331.405 -0.36555 -0.64549 
0.775 1898.7 77.543 24.946 335.609 -0.31585 -0.64422 
0.800 1200.2 71.575 24.842 340.186 -0.25846 -0.64701 
0.825 1498.6 63.002 24.875 345.143 -0.19570 -0.64613 
0.850 1498.6 62.194 24.890 350.294 -0.12873 -0.64573 
0.875 1098.6 67.626 24.876 355.571 -0.05894 -0.64610 
0.900 1295.4 70.848 25.030 0.836 0.01118 -0.64199 
0.925 1397.0 71.178 24.911 6.164 0.08204 -0.64517 
0.950 1397.0 64.312 24.933 11.545 0.15301 -0.64458 
0.975 1098.6 73.947 25.042 16.802 0.22171 -0.64168 
1.000 1397.0 67.894 25.065 21.728 0.28413 -0.64105 
1.025 1397.0 73.382 25.047 26.608 0.34357 -0.64154 
1.050 895.4 64.648 25.182 31.239 0.39939 -0.63790 
1.075 1397.0 72.883 25.155 35.481 0.44665 -0.63864 
1.100 1397.0 78.127 25.200 39.754 0.49274 -0.63741 
1.125 1397.0 77.048 25.307 44.074 0.53761 -0.63454 
1.150 1295.4 70.773 25.452 48.831 0.58423 -0.63061 
1.175 1295.4 61.882 25.702 56.251 0.64985 -0.62384 
1.200 1695.5 67.872 26.777 67.438 0.74286 -0.59406 
1.225 1397.0 79.128 28.811 75.332 0.81701 -0.53550 
1.250 895.4 63.812 31.949 69.373 0.84044 -0.43998 
1.275 1695.5 67.473 35.852 56.608 0.79272 -0.31392 
1.300 1797.1 61.412 40.428 38.282 0.61166 -0.15891 
1.325 2597.2 61.823 44.145 16.224 0.27927 -0.02983 
1.350 1600.2 73.459 45.009 346.413 -0.23493 0.00031 
1.375 2101.9 61.035 42.264 323.240 -0.59574 -0.09537 
1.400 1905.0 79.649 37.056 301.024 -0.82422 -0.27374 
1.425 3905.3 32.881 33.430 289.830 -0.86503 -0.39297 
1.450 3905.3 18.079 30.200 282.672 -0.84831 -0.49395 
1.475 780.0 51.610 26.665 287.016 -0.76698 -0.59721 
1.500 607.0 71.297 25.280 286.443 -0.74070 -0.63528 
1.525 706.0 72.829 23.838 295.525 -0.66718 -0.67333 
1.550 639.0 74.552 23.035 302.947 -0.60436 -0.69378 
1.575 667.0 66.515 22.385 311.153 -0.53028 -0.70994 
1.600 667.0 77.075 21.961 318.983 -0.45526 -0.72027 
1.625 584.0 65.254 21.729 326.324 -0.38140 -0.72588 
1.650 603.0 67.249 21.489 334.305 -0.29558 -0.73162 
1.675 589.0 70.753 21.337 341.719 -0.21261 -0.73523 
1.700 573.0 69.229 21.189 349.164 -0.12672 -0.73871 
1.725 573.0 79.886 21.059 356.646 -0.03924 -0.74177 
1.750 551.0 70.853 20.984 3.996 0.04660 -0.74352 
1.775 540.0 69.571 20.917 11.247 0.13009 -0.74507 
1.800 523.0 71.265 20.842 18.960 0.21607 -0.74683 
1.825 523.0 76.939 20.759 26.297 0.29366 -0.74876 
1.850 509.0 68.904 20.633 33.970 0.36853 -0.75166 
1.875 509.0 73.041 20.589 41.301 0.43456 -0.75267 
1.900 499.0 69.090 20.553 49.353 0.49884 -0.75349 
1.925 499.0 73.058 20.534 57.112 0.55167 -0.75393 
1.950 499.0 74.928 20.607 65.616 0.60010 -0.75225 
1.975 499.0 76.446 20.727 75.021 0.63952 -0.74949 
2.000 499.0 75.509 21.009 84.999 0.66681 -0.74294 
2.025 499.0 68.869 21.521 86.168 0.68100 -0.73086 
2.050 499.0 60.472 22.128 73.425 0.66888 -0.71622 
2.075 499.0 61.780 22.862 58.907 0.61312 -0.69811 
2.100 512.0 69.394 23.633 42.101 0.49244 -0.67860 
2.125 512.0 64.644 23.939 23.444 0.29510 -0.67071 
2.150 512.0 63.911 23.573 2.615 0.03345 -0.68012 
2.175 512.0 68.412 22.331 341.290 -0.22548 -0.71127 
2.200 512.0 78.488 20.696 321.258 -0.41380 -0.75019 
2.225 492.0 69.381 18.979 302.748 -0.51733 -0.78846 
2.250 479.0 68.980 17.471 285.418 -0.55213 -0.81973 
2.275 468.0 69.634 16.431 270.000 -0.54338 -0.83998 
2.300 459.0 71.182 15.652 281.832 -0.50854 -0.85442 
2.325 447.0 68.692 15.112 294.862 -0.45674 -0.86406 
2.350 447.0 78.734 14.738 305.418 -0.40101 -0.87055 
2.375 433.0 69.608 14.579 315.632 -0.34070 -0.87327 
2.400 433.0 77.253 14.451 325.126 -0.27635 -0.87544 
2.425 421.0 70.860 14.368 334.085 -0.21011 -0.87685 
2.450 410.0 70.244 14.406 342.360 -0.14605 -0.87620 
2.475 410.0 77.154 14.325 349.860 -0.08441 -0.87756 
2.500 452.0 65.586 14.349 357.758 -0.01879 -0.87717 
2.525 452.0 71.165 14.236 4.854 0.04034 -0.87904 
2.550 452.0 69.125 14.124 11.722 0.09616 -0.88090 
2.575 452.0 76.565 13.976 18.183 0.14627 -0.88334 
2.600 452.0 70.293 13.740 24.925 0.19447 -0.88717 
2.625 440.0 69.628 13.504 31.471 0.23708 -0.89094 
2.650 440.0 74.316 13.183 38.007 0.27346 -0.89598 
2.675 440.0 63.494 12.890 43.985 0.30205 -0.90046 
2.700 452.0 68.993 12.385 50.774 0.32457 -0.90799 
2.725 452.0 62.735 11.869 57.531 0.33962 -0.91540 
2.750 452.0 63.855 11.241 64.466 0.34504 -0.92400 
2.775 468.0 68.984 10.580 71.017 0.34134 -0.93258 
2.800 468.0 64.690 9.780 78.514 0.32810 -0.94229 
2.825 468.0 62.412 8.897 84.034 0.30396 -0.95216 
2.850 479.0 68.428 7.786 90.000 0.26975 -0.96329 
2.875 479.0 65.156 6.605 85.088 0.22769 -0.97354 
2.900 479.0 63.058 5.509 72.859 0.18263 -0.98157 
2.925 479.0 62.259 4.208 68.035 0.13572 -0.98923 
2.950 479.0 63.536 3.050 54.746 0.08678 -0.99434 
2.975 479.0 62.821 1.738 46.398 0.04391 -0.99816 
3.000 479.0 64.193 0.704 18.512 0.00780 -0.99970 
3.025 479.0 64.893 0.000 180.000 -0.01814 -1.00004 
3.050 479.0 66.171 1.720 324.763 -0.03462 -0.99820 
3.075 479.0 67.424 2.489 329.873 -0.04355 -0.99623 
3.100 462.0 70.088 3.431 337.840 -0.04506 -0.99284 
3.125 462.0 73.428 4.313 344.515 -0.04004 -0.98869 
3.150 462.0 74.132 5.045 350.293 -0.02954 -0.98453 
3.175 462.0 75.219 5.810 355.778 -0.01483 -0.97950 
3.200 462.0 75.749 6.292 0.563 0.00214 -0.97598 
3.225 462.0 76.189 6.823 4.983 0.02049 -0.97177 
3.250 462.0 77.430 7.214 9.629 0.04168 -0.96846 
3.275 462.0 76.865 7.566 14.311 0.06453 -0.96533 
3.300 462.0 74.791 7.769 18.790 0.08628 -0.96345 
3.325 462.0 70.876 8.033 23.179 0.10893 -0.96094 
3.350 462.0 67.907 8.177 27.621 0.13054 -0.95954 
3.375 462.0 69.442 8.175 31.591 0.14746 -0.95956 
3.400 462.0 70.706 8.164 35.298 0.16245 -0.95966 
3.425 462.0 70.820 8.028 38.858 0.17353 -0.96099 
3.450 462.0 70.100 7.918 41.885 0.18218 -0.96205 
3.475 462.0 68.595 7.745 44.604 0.18754 -0.96367 
3.500 462.0 66.719 7.568 46.800 0.19033 -0.96531 
3.525 462.0 65.138 7.364 48.728 0.19107 -0.96714 
3.550 462.0 62.838 7.285 49.245 0.19055 -0.96784 
3.575 462.0 61.740 6.986 51.398 0.18869 -0.97041 
3.600 462.0 60.675 6.816 52.042 0.18582 -0.97183 
3.625 462.0 59.606 6.580 53.116 0.18209 -0.97374 
3.650 472.0 68.909 6.312 54.734 0.17845 -0.97582 
3.675 472.0 68.796 6.136 54.293 0.17261 -0.97715 
3.700 472.0 67.711 5.888 55.553 0.16831 -0.97895 
3.725 472.0 67.749 5.808 54.681 0.16429 -0.97952 
3.750 472.0 67.480 5.787 52.451 0.15906 -0.97967 
3.775 472.0 66.931 5.706 52.158 0.15625 -0.98023 
3.800 472.0 65.240 5.674 50.988 0.15289 -0.98045 
3.825 472.0 62.264 5.626 50.476 0.15052 -0.98078 
3.850 472.0 60.007 5.602 50.046 0.14894 -0.98094 
3.875 483.0 66.812 5.644 49.119 0.14799 -0.98066 
3.900 483.0 61.933 5.873 46.431 0.14750 -0.97906 
3.925 493.0 68.110 5.961 46.008 0.14861 -0.97843 
3.950 493.0 64.404 5.984 46.432 0.15024 -0.97827 
3.975 493.0 60.739 6.086 45.737 0.15099 -0.97752 
4.000 506.0 70.210 6.042 47.244 0.15370 -0.97784 
4.025 506.0 66.888 6.226 46.529 0.15648 -0.97648 
4.050 506.0 63.438 6.165 47.846 0.15831 -0.97693 
4.075 506.0 60.998 6.416 46.862 0.16206 -0.97503 
4.100 519.0 69.215 6.485 46.820 0.16366 -0.97449 
4.125 519.0 65.477 6.660 46.046 0.16585 -0.97310 
4.150 519.0 62.347 6.663 47.934 0.17111 -0.97307 
4.175 519.0 60.460 6.807 47.769 0.17428 -0.97191 
4.200 519.0 57.956 6.820 48.365 0.17626 -0.97179 
4.225 532.0 68.198 6.786 50.051 0.17989 -0.97208 
4.250 532.0 65.970 6.856 50.894 0.18394 -0.97150 
4.275 532.0 64.242 6.971 49.885 0.18427 -0.97054 
4.300 598.0 66.361 7.057 51.087 0.18974 -0.96981 
4.325 598.0 70.744 7.067 52.120 0.19273 -0.96973 
4.350 598.0 74.768 7.097 52.356 0.19415 -0.96947 
4.375 598.0 78.573 7.126 52.945 0.19647 -0.96922 
4.400 585.0 69.687 7.097 53.221 0.19641 -0.96947 
4.425 585.0 71.810 7.088 54.009 0.19814 -0.96955 
4.450 585.0 73.903 7.136 53.800 0.19894 -0.96913 
4.475 585.0 75.189 7.057 55.003 0.19976 -0.96981 
4.500 585.0 76.737 7.079 55.018 0.20040 -0.96963 
4.525 575.0 68.271 6.971 56.098 0.19998 -0.97054 
4.550 575.0 68.642 7.123 55.036 0.20166 -0.96925 
4.575 575.0 68.860 7.039 56.240 0.20224 -0.96996 
4.600 575.0 68.586 7.071 55.928 0.20237 -0.96970 
4.625 575.0 68.398 7.068 56.051 0.20259 -0.96972 
4.650 575.0 67.150 7.039 56.217 0.20218 -0.96996 
4.675 575.0 66.686 7.032 56.816 0.20337 -0.97003 
4.700 575.0 65.571 7.073 56.954 0.20485 -0.96968 
4.725 575.0 63.936 7.020 57.013 0.20350 -0.97012 
4.750 575.0 63.272 7.201 55.143 0.20411 -0.96857 
4.775 575.0 61.987 7.204 55.697 0.20555 -0.96855 
4.800 575.0 60.987 7.239 55.310 0.20556 -0.96825 
4.825 575.0 59.552 7.155 56.980 0.20725 -0.96897 
4.850 589.0 69.216 7.277 54.769 0.20528 -0.96791 
4.875 589.0 68.028 7.290 55.936 0.20853 -0.96780 
4.900 589.0 67.132 7.256 57.221 0.21069 -0.96809 
4.925 589.0 66.065 7.149 58.655 0.21091 -0.96903 
4.950 589.0 63.769 7.239 57.934 0.21186 -0.96825 
4.975 589.0 63.843 7.346 56.443 0.21135 -0.96730 
5.000 589.0 62.254 7.269 58.016 0.21291 -0.96798 
5.025 589.0 61.682 7.346 58.012 0.21511 -0.96731 
5.050 589.0 60.404 7.304 58.843 0.21583 -0.96767 
5.075 601.0 68.260 7.366 58.205 0.21613 -0.96713 
5.100 601.0 66.430 7.411 57.964 0.21685 -0.96673 
5.125 601.0 65.304 7.367 59.039 0.21810 -0.96712 
5.150 601.0 63.080 7.408 59.577 0.22052 -0.96675 
5.175 601.0 61.172 7.429 59.490 0.22091 -0.96657 
5.200 601.0 59.955 7.569 58.956 0.22373 -0.96530 
5.225 614.0 67.973 7.460 59.762 0.22244 -0.96629 
5.250 614.0 66.060 7.613 58.865 0.22480 -0.96490 
5.275 614.0 64.150 7.669 58.542 0.22563 -0.96438 
5.300 614.0 62.678 7.547 60.400 0.22642 -0.96550 
5.325 614.0 61.290 7.543 61.170 0.22802 -0.96553 
5.350 614.0 59.467 7.767 58.572 0.22853 -0.96347 
5.375 627.0 68.281 7.631 60.925 0.23007 -0.96473 
5.400 627.0 66.087 7.608 60.792 0.22910 -0.96494 
5.425 627.0 64.916 7.613 61.804 0.23145 -0.96490 
5.450 627.0 63.159 7.651 61.665 0.23229 -0.96455 
5.475 627.0 61.539 7.776 60.307 0.23292 -0.96338 
5.500 627.0 59.840 7.702 61.139 0.23263 -0.96408 
5.525 639.0 67.310 7.840 60.049 0.23416 -0.96279 
5.550 639.0 64.568 7.825 60.879 0.23565 -0.96293 
5.575 639.0 62.848 7.681 63.817 0.23774 -0.96427 
5.600 639.0 59.836 7.816 62.410 0.23881 -0.96301 
5.625 654.0 69.690 7.951 60.450 0.23836 -0.96173 
5.650 654.0 66.053 7.734 63.939 0.23957 -0.96378 
5.675 654.0 63.648 7.903 62.432 0.24147 -0.96219 
5.700 654.0 60.684 7.937 62.367 0.24233 -0.96186 
5.725 673.0 72.774 8.040 61.472 0.24334 -0.96088 
5.750 673.0 68.723 7.986 62.156 0.24330 -0.96140 
5.775 673.0 65.759 7.938 63.336 0.24445 -0.96186 
5.800 673.0 61.591 8.077 62.645 0.24710 -0.96052 
5.825 688.0 68.262 8.099 62.977 0.24849 -0.96031 
5.850 688.0 64.946 7.984 64.980 0.24930 -0.96141 
5.875 688.0 60.548 7.953 65.294 0.24898 -0.96171 
5.900 709.0 71.084 8.296 63.040 0.25451 -0.95837 
5.925 709.0 66.217 8.131 65.268 0.25433 -0.96000 
5.950 709.0 61.598 8.169 62.024 0.24843 -0.95962 
5.975 728.0 69.305 8.092 65.654 0.25392 -0.96038 
6.000 728.0 64.504 8.094 65.156 0.25299 -0.96035 
6.025 743.0 69.626 8.160 66.966 0.25860 -0.95971 
6.050 743.0 64.745 8.278 65.886 0.26009 -0.95854 
6.075 743.0 60.185 8.749 60.733 0.26230 -0.95373 
6.100 764.0 69.271 8.690 59.184 0.25653 -0.95435 
6.125 764.0 64.014 8.319 64.132 0.25762 -0.95814 
6.150 764.0 59.915 8.559 60.694 0.25667 -0.95570 
6.175 780.0 65.089 8.948 60.819 0.26830 -0.95161 
6.200 780.0 60.664 7.983 69.609 0.25784 -0.96142 
6.225 780.0 57.712 8.500 60.839 0.25531 -0.95630 
6.250 780.0 54.071 8.567 62.050 0.26024 -0.95562 
6.275 780.0 51.088 8.233 71.188 0.26829 -0.95899 
6.300 780.0 47.056 8.305 67.905 0.26486 -0.95827 
6.325 780.0 43.441 8.044 76.888 0.26989 -0.96084 
6.350 780.0 40.595 7.897 78.140 0.26638 -0.96224 
6.375 780.0 36.806 8.982 58.557 0.26313 -0.95125 
6.400 780.0 33.440 8.389 65.875 0.26344 -0.95743 
6.425 780.0 30.187 8.046 72.496 0.26434 -0.96082 
6.450 780.0 26.575 7.676 90.000 0.27305 -0.96431 
6.475 780.0 23.820 8.667 62.612 0.26454 -0.95459 
6.500 780.0 20.698 9.121 64.202 0.28182 -0.94975 

# MINIMA:
0.600 410.0 18.079 0.000 0.563 -0.86503 -1.00004 

# MAXIMA:
6.500 3905.3 79.886 45.009 357.758 0.84044 0.00031 

# PEAKS:

# END SPECTRUM


# SPECTRUM:
3

# START TIME:
14:43:10

# END TIME:
14:53:45

# THETA ANGLE:
0.00 ø

# INCIDENCE ANGLE:
65.00 ø

# ACCUMULATION NUMBER:
1

# ELLIPSOMETRIC CONFIGURATION:
-45.00 øModulator
+45.00 øAnalyser

# INTEGRATION TIME:
500 ms

# FIRST POINT:
0.6000 eV

# LAST POINT:
6.5000 eV

# INCREMENT:
0.0250 eV

# NUMBER OF POINTS:
237

# DATA:
eV Hv S0 Psi Delta Is Ic 
0.600 3898.9 40.705 23.335 319.173 -0.47557 -0.68619 
0.625 4000.5 59.438 23.027 315.155 -0.50774 -0.69397 
0.650 4000.5 63.890 22.385 312.400 -0.52006 -0.70994 
0.675 4000.5 65.978 21.654 311.673 -0.51235 -0.72768 
0.700 3600.5 79.421 21.389 311.288 -0.51032 -0.73400 
0.725 3003.6 78.964 20.847 313.328 -0.48386 -0.74670 
0.750 2806.7 77.585 20.352 316.972 -0.44500 -0.75808 
0.775 2209.8 77.064 19.868 321.781 -0.39549 -0.76899 
0.800 1308.1 74.635 19.452 327.676 -0.33581 -0.77819 
0.825 1606.6 61.725 19.096 334.431 -0.26686 -0.78594 
0.850 1606.6 60.351 18.862 341.659 -0.19253 -0.79097 
0.875 1206.5 73.459 18.667 349.270 -0.11291 -0.79511 
0.900 1403.4 71.226 18.733 357.230 -0.02939 -0.79372 
0.925 1403.4 59.498 18.677 5.293 0.05597 -0.79491 
0.950 1505.0 63.390 18.867 13.101 0.13872 -0.79087 
0.975 1206.5 77.634 19.073 20.920 0.22055 -0.78644 
1.000 1505.0 68.661 19.389 28.039 0.29441 -0.77959 
1.025 1505.0 75.254 19.792 34.742 0.36314 -0.77069 
1.050 1003.3 74.741 20.261 40.856 0.42504 -0.76015 
1.075 1403.4 65.807 20.627 46.296 0.47670 -0.75179 
1.100 1403.4 71.465 21.252 51.215 0.52667 -0.73723 
1.125 1403.4 72.943 21.893 55.817 0.57243 -0.72192 
1.150 1301.8 71.347 22.805 59.960 0.61861 -0.69953 
1.175 1301.8 67.522 24.043 65.020 0.67454 -0.66801 
1.200 1498.6 62.646 25.997 69.419 0.73765 -0.61576 
1.225 1200.2 70.115 28.662 67.317 0.77662 -0.53990 
1.250 800.1 63.485 31.782 60.080 0.77609 -0.44521 
1.275 1397.0 64.772 35.179 50.887 0.73076 -0.33615 
1.300 1498.6 69.617 39.181 38.678 0.61209 -0.20173 
1.325 1797.1 65.479 42.716 23.861 0.40324 -0.07963 
1.350 1295.4 72.605 45.078 3.094 0.05397 0.00271 
1.375 1695.5 60.623 44.457 344.385 -0.26912 -0.01895 
1.400 1593.9 76.741 41.176 324.196 -0.57981 -0.13310 
1.425 3994.2 39.663 37.570 312.246 -0.71551 -0.25645 
1.450 3994.2 20.099 33.291 300.558 -0.79018 -0.39745 
1.475 780.0 61.929 29.257 294.533 -0.77578 -0.52229 
1.500 593.0 68.946 26.661 281.442 -0.78607 -0.59731 
1.525 683.0 63.392 24.288 279.067 -0.74046 -0.66164 
1.550 633.0 77.209 22.391 278.167 -0.69726 -0.70980 
1.575 663.0 66.592 20.676 285.297 -0.63727 -0.75067 
1.600 663.0 72.898 19.273 293.561 -0.57120 -0.78211 
1.625 596.0 75.436 18.086 302.242 -0.49921 -0.80724 
1.650 596.0 59.905 17.101 312.967 -0.41132 -0.82706 
1.675 596.0 74.210 16.244 322.995 -0.32328 -0.84351 
1.700 577.0 69.925 15.621 334.087 -0.22666 -0.85498 
1.725 577.0 79.796 15.177 345.399 -0.12739 -0.86292 
1.750 556.0 72.050 14.977 356.971 -0.02639 -0.86642 
1.775 542.0 68.163 14.897 8.625 0.07452 -0.86781 
1.800 526.0 72.539 14.921 20.495 0.17423 -0.86739 
1.825 526.0 79.538 15.206 31.606 0.26529 -0.86241 
1.850 510.0 69.478 15.656 42.695 0.35240 -0.85435 
1.875 510.0 77.682 16.165 53.017 0.42721 -0.84497 
1.900 494.0 67.761 16.870 63.178 0.49568 -0.83156 
1.925 494.0 74.923 17.601 72.473 0.54969 -0.81713 
1.950 484.0 68.833 18.434 81.913 0.59400 -0.80003 
1.975 484.0 73.750 19.379 90.000 0.62762 -0.77979 
2.000 484.0 76.752 20.455 81.662 0.64794 -0.75575 
2.025 484.0 73.741 21.700 72.206 0.65422 -0.72657 
2.050 484.0 68.759 23.046 62.839 0.64101 -0.69350 
2.075 484.0 73.689 24.457 52.568 0.59852 -0.65718 
2.100 484.0 72.219 25.920 41.384 0.51981 -0.61787 
2.125 484.0 69.286 27.093 29.314 0.39702 -0.58517 
2.150 484.0 66.421 27.714 15.612 0.22159 -0.56745 
2.175 484.0 68.485 27.438 0.973 0.01390 -0.57533 
2.200 484.0 71.599 26.282 346.974 -0.17898 -0.60786 
2.225 484.0 78.206 24.362 333.396 -0.33655 -0.65968 
2.250 469.0 70.213 22.067 321.029 -0.43795 -0.71771 
2.275 461.0 70.498 19.800 310.016 -0.48817 -0.77052 
2.300 452.0 69.419 17.516 299.141 -0.50137 -0.81884 
2.325 444.0 70.046 15.359 288.116 -0.48548 -0.85970 
2.350 444.0 78.793 13.505 273.860 -0.45312 -0.89092 
2.375 430.0 68.757 11.898 270.000 -0.40703 -0.91499 
2.400 430.0 77.125 10.514 282.221 -0.35069 -0.93340 
2.425 416.0 66.248 9.226 294.384 -0.28828 -0.94859 
2.450 416.0 81.637 8.287 307.986 -0.22484 -0.95845 
2.475 401.0 68.463 7.530 322.093 -0.15963 -0.96566 
2.500 458.0 65.327 7.064 338.537 -0.08932 -0.96975 
2.525 458.0 70.888 6.756 354.259 -0.02337 -0.97232 
2.550 458.0 70.702 6.744 9.814 0.03976 -0.97242 
2.575 458.0 78.214 6.896 24.210 0.09777 -0.97116 
2.600 458.0 74.527 7.149 38.358 0.15327 -0.96902 
2.625 442.0 70.576 7.621 50.484 0.20280 -0.96483 
2.650 442.0 78.095 8.037 62.033 0.24453 -0.96091 
2.675 442.0 68.887 8.546 71.037 0.27795 -0.95584 
2.700 442.0 62.764 9.059 79.592 0.30586 -0.95042 
2.725 442.0 59.652 9.499 90.000 0.32656 -0.94553 
2.750 442.0 62.791 9.948 82.143 0.33711 -0.94031 
2.775 455.0 68.376 10.267 75.297 0.33928 -0.93646 
2.800 455.0 66.458 10.538 67.539 0.33233 -0.93310 
2.825 455.0 65.388 10.736 59.931 0.31679 -0.93060 
2.850 455.0 61.518 10.880 52.021 0.29222 -0.92874 
2.875 465.0 69.958 10.770 45.203 0.26053 -0.93016 
2.900 465.0 68.969 10.636 38.241 0.22456 -0.93187 
2.925 465.0 67.321 10.382 31.620 0.18587 -0.93505 
2.950 465.0 68.177 9.935 24.750 0.14230 -0.94047 
2.975 465.0 66.498 9.371 18.261 0.10068 -0.94697 
3.000 465.0 65.463 8.668 12.102 0.06247 -0.95458 
3.025 465.0 65.189 7.956 6.329 0.03022 -0.96169 
3.050 465.0 64.738 7.128 1.438 0.00618 -0.96920 
3.075 465.0 64.183 6.354 357.033 -0.01139 -0.97550 
3.100 454.0 71.959 5.427 353.168 -0.02240 -0.98211 
3.125 454.0 73.613 4.648 350.495 -0.02668 -0.98687 
3.150 454.0 74.024 3.752 349.103 -0.02469 -0.99144 
3.175 454.0 72.620 3.055 350.909 -0.01682 -0.99432 
3.200 454.0 73.156 2.110 356.504 -0.00449 -0.99729 
3.225 454.0 72.585 1.527 11.061 0.01022 -0.99858 
3.250 454.0 73.812 1.164 43.317 0.02788 -0.99917 
3.275 454.0 73.061 1.045 90.000 0.04851 -0.99933 
3.300 454.0 70.685 1.851 90.000 0.06975 -0.99791 
3.325 454.0 67.086 2.359 90.000 0.09158 -0.99661 
3.350 454.0 65.355 3.139 90.000 0.11377 -0.99400 
3.375 454.0 65.977 3.550 90.000 0.13262 -0.99233 
3.400 454.0 68.500 4.200 90.000 0.14852 -0.98927 
3.425 454.0 68.930 4.631 90.000 0.16215 -0.98696 
3.450 454.0 69.353 5.166 73.810 0.17225 -0.98378 
3.475 454.0 68.476 5.344 77.078 0.18078 -0.98265 
3.500 454.0 67.276 5.643 71.692 0.18580 -0.98066 
3.525 454.0 65.402 5.864 68.763 0.18947 -0.97912 
3.550 454.0 64.082 6.072 65.722 0.19176 -0.97762 
3.575 454.0 62.676 6.184 64.110 0.19268 -0.97679 
3.600 454.0 61.394 6.290 61.266 0.19098 -0.97599 
3.625 454.0 60.577 6.290 60.080 0.18879 -0.97599 
3.650 454.0 61.121 6.231 59.817 0.18654 -0.97644 
3.675 454.0 60.442 6.267 57.513 0.18305 -0.97617 
3.700 454.0 59.768 6.150 57.354 0.17938 -0.97705 
3.725 464.0 70.319 6.183 55.194 0.17585 -0.97680 
3.750 464.0 68.764 6.014 55.457 0.17165 -0.97805 
3.775 464.0 69.201 6.053 53.421 0.16840 -0.97776 
3.800 464.0 66.873 5.957 53.511 0.16596 -0.97846 
3.825 464.0 64.266 5.948 52.252 0.16299 -0.97852 
3.850 464.0 61.071 5.759 53.500 0.16051 -0.97986 
3.875 474.0 67.926 5.868 51.691 0.15961 -0.97909 
3.900 474.0 62.883 5.743 52.645 0.15829 -0.97997 
3.925 484.0 68.516 5.815 51.097 0.15688 -0.97947 
3.950 484.0 64.448 5.681 53.138 0.15763 -0.98040 
3.975 484.0 60.902 5.729 53.058 0.15877 -0.98007 
4.000 497.0 69.712 5.687 54.355 0.16027 -0.98036 
4.025 497.0 67.208 5.739 54.788 0.16258 -0.98000 
4.050 497.0 62.950 5.665 57.140 0.16502 -0.98051 
4.075 497.0 59.576 5.786 55.984 0.16628 -0.97967 
4.100 511.0 70.314 5.638 60.085 0.16948 -0.98070 
4.125 511.0 67.310 5.894 57.850 0.17296 -0.97891 
4.150 511.0 62.859 5.861 59.583 0.17519 -0.97915 
4.175 522.0 70.849 5.900 60.493 0.17796 -0.97887 
4.200 522.0 68.331 6.017 59.729 0.18008 -0.97802 
4.225 522.0 67.687 5.982 62.331 0.18360 -0.97828 
4.250 522.0 65.180 6.075 61.358 0.18473 -0.97760 
4.275 522.0 63.686 6.243 60.591 0.18834 -0.97635 
4.300 588.0 66.754 6.443 60.455 0.19400 -0.97482 
4.325 588.0 70.581 6.630 58.706 0.19600 -0.97334 
4.350 588.0 75.142 6.685 58.888 0.19798 -0.97290 
4.375 588.0 79.443 6.680 60.400 0.20090 -0.97294 
4.400 575.0 70.513 6.701 60.387 0.20149 -0.97277 
4.425 575.0 72.507 6.785 59.882 0.20294 -0.97209 
4.450 575.0 75.142 6.834 58.603 0.20168 -0.97169 
4.475 575.0 76.115 6.930 58.951 0.20522 -0.97089 
4.500 575.0 77.656 6.945 59.020 0.20581 -0.97076 
4.525 575.0 79.252 6.941 59.659 0.20707 -0.97079 
4.550 564.0 68.456 7.081 57.932 0.20734 -0.96961 
4.575 564.0 69.770 7.034 59.031 0.20841 -0.97001 
4.600 564.0 68.701 7.061 58.451 0.20792 -0.96978 
4.625 564.0 68.191 6.952 60.080 0.20826 -0.97070 
4.650 564.0 66.871 7.094 58.727 0.20949 -0.96950 
4.675 564.0 66.637 7.093 59.087 0.21027 -0.96950 
4.700 564.0 65.650 7.173 57.748 0.20955 -0.96882 
4.725 564.0 65.318 7.072 59.767 0.21112 -0.96969 
4.750 564.0 64.378 7.238 57.403 0.21061 -0.96825 
4.775 564.0 62.955 7.233 57.806 0.21140 -0.96829 
4.800 564.0 60.505 7.244 57.971 0.21210 -0.96820 
4.825 575.0 69.737 7.228 58.499 0.21285 -0.96834 
4.850 575.0 68.268 7.132 59.979 0.21334 -0.96917 
4.875 575.0 66.537 7.289 58.655 0.21497 -0.96780 
4.900 575.0 65.013 7.242 59.184 0.21478 -0.96822 
4.925 575.0 63.756 7.270 59.138 0.21551 -0.96797 
4.950 575.0 62.620 7.367 58.442 0.21671 -0.96712 
4.975 575.0 61.297 7.285 60.063 0.21799 -0.96784 
5.000 575.0 60.038 7.320 60.441 0.21984 -0.96754 
5.025 575.0 59.327 7.415 59.517 0.22056 -0.96669 
5.050 590.0 71.434 7.308 61.323 0.22139 -0.96764 
5.075 590.0 69.514 7.536 58.716 0.22222 -0.96560 
5.100 590.0 67.768 7.460 59.843 0.22262 -0.96629 
5.125 590.0 66.183 7.499 60.107 0.22434 -0.96594 
5.150 590.0 63.719 7.509 60.149 0.22474 -0.96585 
5.175 590.0 62.617 7.579 60.658 0.22794 -0.96521 
5.200 603.0 70.957 7.622 60.172 0.22809 -0.96482 
5.225 603.0 68.567 7.511 61.952 0.22875 -0.96582 
5.250 603.0 67.336 7.554 62.627 0.23145 -0.96544 
5.275 603.0 65.193 7.738 60.664 0.23263 -0.96374 
5.300 603.0 63.138 7.899 58.748 0.23273 -0.96223 
5.325 603.0 60.535 7.633 62.372 0.23329 -0.96471 
5.350 616.0 69.946 7.812 60.654 0.23476 -0.96305 
5.375 616.0 68.618 7.896 59.714 0.23501 -0.96225 
5.400 616.0 67.173 7.758 61.908 0.23600 -0.96355 
5.425 616.0 65.320 7.848 61.316 0.23733 -0.96271 
5.450 616.0 63.329 7.818 62.148 0.23832 -0.96299 
5.475 616.0 62.959 7.996 60.131 0.23889 -0.96130 
5.500 616.0 60.524 7.831 63.219 0.24099 -0.96287 
5.525 629.0 68.873 7.943 62.344 0.24246 -0.96181 
5.550 629.0 65.995 7.959 62.088 0.24237 -0.96165 
5.575 629.0 65.148 7.920 63.607 0.24451 -0.96202 
5.600 629.0 61.562 7.950 63.234 0.24461 -0.96174 
5.625 644.0 71.411 7.866 64.780 0.24530 -0.96254 
5.650 644.0 68.285 7.946 64.349 0.24683 -0.96178 
5.675 644.0 64.869 8.250 61.104 0.24866 -0.95882 
5.700 644.0 62.046 8.225 61.911 0.24981 -0.95907 
5.725 644.0 59.515 8.380 59.522 0.24853 -0.95752 
5.750 656.0 64.691 8.129 63.550 0.25065 -0.96001 
5.775 668.0 70.801 8.208 63.910 0.25381 -0.95924 
5.800 668.0 66.057 8.196 63.478 0.25251 -0.95935 
5.825 668.0 62.658 8.352 62.401 0.25472 -0.95780 
5.850 668.0 59.508 8.296 63.969 0.25660 -0.95836 
5.875 686.0 68.591 8.305 64.495 0.25799 -0.95827 
5.900 686.0 63.791 8.440 62.609 0.25782 -0.95691 
5.925 699.0 69.556 8.346 64.370 0.25896 -0.95787 
5.950 699.0 63.931 8.456 63.433 0.26019 -0.95675 
5.975 715.0 69.762 8.619 61.607 0.26069 -0.95508 
6.000 715.0 64.741 8.782 59.755 0.26070 -0.95338 
6.025 729.0 69.978 8.476 61.926 0.25728 -0.95654 
6.050 729.0 65.460 8.525 63.383 0.26212 -0.95605 
6.075 729.0 60.339 8.987 58.807 0.26396 -0.95120 
6.100 750.0 70.141 8.709 63.993 0.26904 -0.95414 
6.125 750.0 64.751 8.561 64.345 0.26538 -0.95568 
6.150 750.0 60.901 8.605 61.924 0.26104 -0.95523 
6.175 775.0 74.218 7.689 82.468 0.26290 -0.96420 
6.200 775.0 67.906 8.864 60.560 0.26519 -0.95251 
6.225 775.0 64.268 8.738 64.071 0.27007 -0.95385 
6.250 780.0 62.209 8.314 80.492 0.28224 -0.95818 
6.275 780.0 58.978 8.780 63.737 0.27057 -0.95340 
6.300 780.0 53.387 8.843 60.942 0.26556 -0.95274 
6.325 780.0 51.186 9.316 57.599 0.26974 -0.94759 
6.350 780.0 46.392 8.602 63.157 0.26390 -0.95526 
6.375 780.0 42.550 8.822 60.511 0.26382 -0.95296 
6.400 780.0 38.821 8.170 72.027 0.26762 -0.95961 
6.425 780.0 34.678 9.295 59.459 0.27457 -0.94782 
6.450 780.0 30.836 8.892 62.188 0.27014 -0.95222 
6.475 780.0 27.156 8.777 64.082 0.27126 -0.95344 
6.500 780.0 23.472 9.719 57.423 0.28043 -0.94300 

# MINIMA:
0.600 401.0 20.099 1.045 0.973 -0.79018 -0.99933 

# MAXIMA:
6.500 4000.5 81.637 45.078 357.230 0.77662 0.00271 

# PEAKS:

# END SPECTRUM


# SPECTRUM:
4

# START TIME:
14:54:36

# END TIME:
15:05:21

# THETA ANGLE:
0.00 ø

# INCIDENCE ANGLE:
70.00 ø

# ACCUMULATION NUMBER:
1

# ELLIPSOMETRIC CONFIGURATION:
-45.00 øModulator
+45.00 øAnalyser

# INTEGRATION TIME:
500 ms

# FIRST POINT:
0.6000 eV

# LAST POINT:
6.5000 eV

# INCREMENT:
0.0250 eV

# NUMBER OF POINTS:
237

# DATA:
eV Hv S0 Psi Delta Is Ic 
0.600 3898.9 40.423 24.116 322.662 -0.45237 -0.66613 
0.625 4000.5 57.177 23.108 317.370 -0.48895 -0.69194 
0.650 4000.5 60.732 22.140 312.158 -0.51754 -0.71594 
0.675 4000.5 59.301 21.091 309.009 -0.52179 -0.74100 
0.700 4000.5 76.067 19.853 303.965 -0.52985 -0.76933 
0.725 3600.5 82.298 18.528 300.924 -0.51693 -0.79805 
0.750 3498.9 77.764 17.124 299.535 -0.48964 -0.82662 
0.775 2902.0 78.124 15.741 300.391 -0.45048 -0.85280 
0.800 1403.4 70.285 14.214 303.485 -0.39704 -0.87941 
0.825 2000.3 65.024 12.942 310.726 -0.33084 -0.89967 
0.850 2101.9 64.023 11.686 320.228 -0.25378 -0.91795 
0.875 1403.4 81.077 10.693 332.363 -0.16915 -0.93114 
0.900 1505.0 61.386 10.086 347.248 -0.07611 -0.93867 
0.925 1701.8 63.747 10.030 3.175 0.01900 -0.93933 
0.950 1701.8 61.479 10.378 18.726 0.11377 -0.93510 
0.975 1301.8 72.449 11.222 32.742 0.20650 -0.92425 
1.000 1600.2 61.146 12.286 43.989 0.28881 -0.90944 
1.025 1600.2 67.173 13.650 52.349 0.36314 -0.88861 
1.050 1098.6 82.504 15.096 58.383 0.42826 -0.86434 
1.075 1498.6 65.602 16.629 61.462 0.48178 -0.83621 
1.100 1498.6 74.796 18.211 62.873 0.52840 -0.80468 
1.125 1397.0 71.692 19.851 63.125 0.56981 -0.76937 
1.150 1295.4 73.616 21.795 61.981 0.60867 -0.72430 
1.175 1295.4 73.016 24.140 60.510 0.64970 -0.66550 
1.200 1397.0 63.896 26.830 58.626 0.68774 -0.59258 
1.225 1098.6 73.752 29.651 54.435 0.69946 -0.51052 
1.250 698.5 60.967 32.570 48.899 0.68373 -0.42040 
1.275 1200.2 64.621 35.530 42.482 0.63879 -0.32458 
1.300 1200.2 65.086 38.747 34.213 0.54893 -0.21655 
1.325 1498.6 70.313 41.781 24.513 0.41228 -0.11213 
1.350 1098.6 80.770 44.406 10.604 0.18398 -0.02072 
1.375 1498.6 65.638 45.044 356.966 -0.05293 0.00152 
1.400 1301.8 72.382 43.623 341.035 -0.32462 -0.04803 
1.425 3898.9 52.684 41.085 330.276 -0.49119 -0.13622 
1.450 4000.5 25.458 37.599 320.034 -0.62101 -0.25550 
1.475 780.0 75.438 33.242 313.175 -0.66871 -0.39899 
1.500 580.0 68.562 30.434 304.593 -0.71907 -0.48683 
1.525 673.0 62.411 27.349 299.076 -0.71327 -0.57787 
1.550 627.0 74.900 24.800 292.823 -0.70191 -0.64812 
1.575 665.0 72.257 22.303 287.259 -0.67062 -0.71194 
1.600 665.0 75.555 19.834 280.500 -0.62765 -0.76975 
1.625 589.0 65.225 17.532 273.555 -0.57338 -0.81852 
1.650 611.0 66.546 15.240 278.670 -0.50144 -0.86180 
1.675 600.0 71.545 13.047 287.520 -0.41945 -0.89807 
1.700 588.0 70.898 10.923 299.771 -0.32301 -0.92818 
1.725 577.0 69.452 9.091 315.259 -0.21965 -0.95007 
1.750 566.0 69.999 7.640 335.751 -0.10823 -0.96465 
1.775 566.0 81.324 7.246 0.895 0.00391 -0.96819 
1.800 520.0 58.837 7.545 26.636 0.11672 -0.96551 
1.825 520.0 66.179 8.754 47.205 0.22075 -0.95368 
1.850 520.0 73.729 10.252 65.422 0.31855 -0.93664 
1.875 507.0 68.808 12.124 76.599 0.39949 -0.91178 
1.900 497.0 71.318 13.985 90.000 0.47024 -0.88320 
1.925 488.0 69.362 15.857 85.541 0.52408 -0.85069 
1.950 488.0 79.029 17.703 76.717 0.56386 -0.81507 
1.975 476.0 70.351 19.537 69.302 0.58964 -0.77633 
2.000 476.0 76.660 21.286 62.822 0.60182 -0.73644 
2.025 476.0 79.922 23.077 56.390 0.60064 -0.69271 
2.050 476.0 78.901 24.840 49.892 0.58314 -0.64704 
2.075 462.0 71.329 26.614 43.000 0.54631 -0.59862 
2.100 462.0 70.799 28.346 35.735 0.48810 -0.54913 
2.125 462.0 68.943 29.810 27.775 0.40202 -0.50573 
2.150 462.0 70.130 30.921 18.897 0.28553 -0.47190 
2.175 462.0 72.505 31.402 9.109 0.14081 -0.45704 
2.200 462.0 70.606 31.055 359.186 -0.01255 -0.46777 
2.225 462.0 77.406 29.914 349.542 -0.15693 -0.50259 
2.250 451.0 67.239 28.077 340.653 -0.27514 -0.55697 
2.275 451.0 74.706 25.960 333.120 -0.35589 -0.61676 
2.300 440.0 67.093 23.529 326.138 -0.40789 -0.68125 
2.325 440.0 73.042 20.934 319.930 -0.42963 -0.74468 
2.350 430.0 68.232 18.437 314.622 -0.42710 -0.79995 
2.375 430.0 73.376 16.091 309.911 -0.40854 -0.84635 
2.400 422.0 69.874 13.706 305.886 -0.37301 -0.88771 
2.425 422.0 76.597 11.357 302.003 -0.32744 -0.92245 
2.450 408.0 72.874 9.284 300.697 -0.27382 -0.94794 
2.475 398.0 65.699 7.134 298.993 -0.21557 -0.96915 
2.500 458.0 64.480 5.051 302.454 -0.14799 -0.98450 
2.525 458.0 70.304 3.250 313.219 -0.08249 -0.99357 
2.550 458.0 69.129 1.993 345.483 -0.01743 -0.99758 
2.575 458.0 79.326 2.376 31.792 0.04365 -0.99656 
2.600 458.0 73.067 3.776 51.315 0.10259 -0.99133 
2.625 440.0 69.302 5.405 56.072 0.15562 -0.98225 
2.650 431.0 68.100 6.917 57.207 0.20102 -0.97099 
2.675 431.0 61.375 8.418 55.092 0.23752 -0.95714 
2.700 431.0 57.093 9.822 52.984 0.26842 -0.94180 
2.725 440.0 65.399 11.192 49.980 0.29164 -0.92465 
2.750 440.0 69.885 12.368 46.980 0.30592 -0.90825 
2.775 440.0 64.405 13.414 43.526 0.31082 -0.89236 
2.800 440.0 64.746 14.327 40.030 0.30842 -0.87753 
2.825 440.0 65.352 15.123 36.443 0.29922 -0.86387 
2.850 440.0 62.826 15.815 32.545 0.28212 -0.85145 
2.875 440.0 62.752 16.306 28.671 0.25857 -0.84235 
2.900 440.0 62.546 16.663 24.911 0.23141 -0.83556 
2.925 440.0 61.806 16.836 21.235 0.20081 -0.83222 
2.950 440.0 63.095 16.861 17.379 0.16583 -0.83173 
2.975 440.0 60.469 16.686 13.771 0.13094 -0.83512 
3.000 440.0 59.149 16.395 10.231 0.09619 -0.84066 
3.025 440.0 57.744 15.918 7.261 0.06667 -0.84957 
3.050 451.0 69.518 15.464 4.588 0.04111 -0.85782 
3.075 451.0 66.391 14.809 2.415 0.02082 -0.86934 
3.100 436.0 69.100 14.114 0.580 0.00479 -0.88107 
3.125 436.0 69.896 13.388 359.347 -0.00514 -0.89278 
3.150 436.0 68.527 12.623 358.722 -0.00951 -0.90449 
3.175 436.0 67.237 11.914 358.762 -0.00873 -0.91476 
3.200 436.0 64.071 11.216 359.575 -0.00283 -0.92434 
3.225 436.0 63.904 10.639 0.955 0.00605 -0.93183 
3.250 436.0 64.209 10.093 3.129 0.01884 -0.93858 
3.275 436.0 64.811 9.695 6.025 0.03484 -0.94328 
3.300 436.0 60.725 9.443 9.385 0.05279 -0.94616 
3.325 450.0 73.884 9.334 13.233 0.07327 -0.94739 
3.350 450.0 69.034 9.324 16.867 0.09277 -0.94751 
3.375 450.0 72.804 9.532 19.941 0.11139 -0.94515 
3.400 450.0 74.876 9.766 22.311 0.12693 -0.94245 
3.425 450.0 77.196 10.118 24.106 0.14127 -0.93828 
3.450 450.0 78.588 10.470 25.319 0.15283 -0.93396 
3.475 450.0 74.321 10.799 26.121 0.16206 -0.92979 
3.500 450.0 73.758 11.106 26.470 0.16850 -0.92579 
3.525 450.0 72.857 11.432 26.507 0.17341 -0.92143 
3.550 450.0 72.385 11.720 26.379 0.17674 -0.91748 
3.575 450.0 70.248 11.926 26.193 0.17849 -0.91459 
3.600 450.0 69.123 12.208 25.732 0.17946 -0.91057 
3.625 450.0 69.755 12.310 25.416 0.17880 -0.90909 
3.650 450.0 67.928 12.509 24.824 0.17755 -0.90617 
3.675 450.0 69.491 12.570 24.389 0.17542 -0.90527 
3.700 450.0 68.133 12.675 23.843 0.17307 -0.90371 
3.725 450.0 67.713 12.741 23.316 0.17028 -0.90273 
3.750 450.0 66.887 12.820 22.695 0.16695 -0.90153 
3.775 450.0 67.361 12.802 22.433 0.16490 -0.90181 
3.800 450.0 64.816 12.834 21.937 0.16182 -0.90131 
3.825 450.0 62.262 12.775 21.664 0.15922 -0.90221 
3.850 450.0 59.447 12.746 21.524 0.15790 -0.90265 
3.875 464.0 69.846 12.611 21.491 0.15611 -0.90466 
3.900 464.0 66.413 12.667 21.330 0.15564 -0.90383 
3.925 464.0 59.655 12.600 21.271 0.15446 -0.90483 
3.950 474.0 65.532 12.498 21.441 0.15446 -0.90634 
3.975 474.0 63.592 12.487 21.445 0.15436 -0.90650 
4.000 484.0 69.301 12.444 21.630 0.15513 -0.90714 
4.025 484.0 67.558 12.432 21.818 0.15627 -0.90730 
4.050 484.0 63.583 12.326 22.126 0.15710 -0.90886 
4.075 494.0 69.251 12.338 22.464 0.15953 -0.90868 
4.100 494.0 66.247 12.329 22.797 0.16166 -0.90881 
4.125 494.0 65.470 12.334 22.999 0.16307 -0.90875 
4.150 494.0 60.797 12.382 23.426 0.16653 -0.90804 
4.175 508.0 71.288 12.429 23.568 0.16807 -0.90736 
4.200 508.0 68.882 12.404 23.965 0.17042 -0.90773 
4.225 508.0 68.219 12.470 24.133 0.17240 -0.90675 
4.250 508.0 62.265 12.421 24.738 0.17581 -0.90747 
4.275 508.0 63.953 12.501 25.036 0.17886 -0.90629 
4.300 573.0 70.990 12.648 25.074 0.18109 -0.90411 
4.325 573.0 78.710 12.696 25.457 0.18432 -0.90339 
4.350 562.0 71.440 12.780 25.624 0.18659 -0.90214 
4.375 562.0 72.668 12.814 25.876 0.18877 -0.90161 
4.400 562.0 76.915 12.899 25.882 0.18998 -0.90033 
4.425 562.0 79.412 12.929 25.931 0.19072 -0.89988 
4.450 551.0 71.056 12.985 26.040 0.19224 -0.89902 
4.475 551.0 71.778 13.042 26.104 0.19347 -0.89815 
4.500 551.0 74.028 13.047 26.206 0.19424 -0.89807 
4.525 551.0 76.389 13.100 26.257 0.19533 -0.89725 
4.550 542.0 66.085 13.168 26.247 0.19619 -0.89621 
4.575 542.0 65.407 13.188 26.331 0.19706 -0.89589 
4.600 542.0 65.243 13.174 26.423 0.19750 -0.89611 
4.625 542.0 65.711 13.260 26.352 0.19820 -0.89478 
4.650 542.0 67.091 13.243 26.387 0.19821 -0.89504 
4.675 542.0 64.141 13.244 26.557 0.19941 -0.89502 
4.700 542.0 62.701 13.373 26.297 0.19938 -0.89301 
4.725 555.0 75.155 13.346 26.446 0.20006 -0.89343 
4.750 555.0 73.793 13.289 26.464 0.19939 -0.89432 
4.775 555.0 70.557 13.337 26.500 0.20031 -0.89358 
4.800 555.0 70.142 13.323 26.711 0.20159 -0.89379 
4.825 555.0 68.013 13.402 26.707 0.20266 -0.89255 
4.850 555.0 69.475 13.401 26.685 0.20249 -0.89257 
4.875 555.0 65.186 13.413 26.787 0.20338 -0.89238 
4.900 555.0 65.654 13.379 27.002 0.20441 -0.89291 
4.925 555.0 64.485 13.398 27.052 0.20503 -0.89262 
4.950 555.0 61.115 13.468 26.908 0.20501 -0.89152 
4.975 555.0 60.981 13.482 27.033 0.20608 -0.89129 
5.000 555.0 59.078 13.507 27.199 0.20761 -0.89090 
5.025 569.0 67.582 13.486 27.386 0.20863 -0.89123 
5.050 569.0 71.409 13.478 27.347 0.20824 -0.89135 
5.075 569.0 65.525 13.526 27.420 0.20945 -0.89059 
5.100 569.0 66.629 13.562 27.501 0.21053 -0.89002 
5.125 569.0 61.562 13.456 27.955 0.21218 -0.89170 
5.150 569.0 61.237 13.494 27.907 0.21240 -0.89110 
5.175 581.0 69.328 13.548 28.013 0.21392 -0.89025 
5.200 581.0 67.858 13.582 28.193 0.21568 -0.88971 
5.225 581.0 67.134 13.614 28.177 0.21605 -0.88919 
5.250 581.0 63.025 13.646 28.523 0.21895 -0.88868 
5.275 581.0 61.816 13.782 28.261 0.21910 -0.88650 
5.300 594.0 71.488 13.620 28.781 0.22037 -0.88910 
5.325 594.0 67.823 13.648 28.766 0.22069 -0.88865 
5.350 594.0 66.019 13.699 28.672 0.22079 -0.88783 
5.375 594.0 67.238 13.760 28.583 0.22106 -0.88685 
5.400 594.0 64.143 13.697 29.304 0.22519 -0.88787 
5.425 594.0 62.420 13.716 28.985 0.22324 -0.88756 
5.450 594.0 62.472 13.767 29.327 0.22641 -0.88674 
5.475 594.0 57.904 13.783 29.362 0.22690 -0.88648 
5.500 606.0 66.458 13.820 29.348 0.22737 -0.88588 
5.525 606.0 64.998 13.879 29.612 0.23014 -0.88492 
5.550 606.0 62.289 13.743 29.771 0.22917 -0.88712 
5.575 606.0 59.602 13.867 29.789 0.23120 -0.88512 
5.600 606.0 58.979 13.841 29.704 0.23020 -0.88554 
5.625 606.0 55.924 13.885 29.962 0.23269 -0.88482 
5.650 623.0 65.417 13.940 30.099 0.23451 -0.88393 
5.675 623.0 64.068 13.939 30.166 0.23496 -0.88395 
5.700 637.0 69.513 13.997 30.302 0.23684 -0.88299 
5.725 637.0 67.753 14.085 29.852 0.23498 -0.88156 
5.750 637.0 66.567 13.909 30.357 0.23585 -0.88443 
5.775 637.0 63.870 14.017 30.554 0.23892 -0.88266 
5.800 650.0 68.834 13.969 30.889 0.24052 -0.88346 
5.825 650.0 64.573 13.941 31.032 0.24108 -0.88392 
5.850 650.0 58.110 14.040 30.702 0.24032 -0.88230 
5.875 665.0 67.750 13.927 31.448 0.24375 -0.88415 
5.900 665.0 63.119 14.150 30.718 0.24217 -0.88048 
5.925 680.0 69.632 14.162 30.835 0.24319 -0.88027 
5.950 680.0 65.327 14.238 31.206 0.24703 -0.87902 
5.975 680.0 61.571 14.171 31.024 0.24468 -0.88012 
6.000 697.0 66.638 14.228 30.977 0.24524 -0.87919 
6.025 712.0 72.372 14.340 31.015 0.24729 -0.87731 
6.050 712.0 69.099 14.376 31.281 0.24977 -0.87670 
6.075 726.0 75.030 14.238 31.752 0.25090 -0.87902 
6.100 726.0 67.140 14.336 31.401 0.24999 -0.87738 
6.125 726.0 62.478 14.466 30.760 0.24742 -0.87519 
6.150 726.0 60.194 14.307 32.263 0.25563 -0.87787 
6.175 746.0 67.791 14.321 31.754 0.25226 -0.87764 
6.200 746.0 64.004 14.534 31.596 0.25454 -0.87405 
6.225 746.0 59.445 14.572 31.188 0.25219 -0.87341 
6.250 765.0 67.469 14.075 32.207 0.25145 -0.88172 
6.275 765.0 62.144 14.590 32.327 0.26072 -0.87310 
6.300 765.0 57.863 14.262 32.393 0.25583 -0.87862 
6.325 780.0 61.311 14.847 31.119 0.25602 -0.86868 
6.350 780.0 57.152 14.422 32.296 0.25776 -0.87594 
6.375 780.0 53.543 14.236 32.425 0.25562 -0.87905 
6.400 780.0 47.698 15.098 31.493 0.26274 -0.86431 
6.425 780.0 43.101 14.339 32.266 0.25619 -0.87733 
6.450 780.0 37.852 14.586 31.688 0.25604 -0.87317 
6.475 780.0 34.146 14.679 32.045 0.26012 -0.87158 
6.500 780.0 29.519 14.731 31.191 0.25472 -0.87069 

# MINIMA:
0.600 398.0 25.458 1.993 0.580 -0.71907 -0.99758 

# MAXIMA:
6.500 4000.5 82.504 45.044 359.575 0.69946 0.00152 

# PEAKS:

# END SPECTRUM


# SPECTRUM:
5

# START TIME:
15:06:12

# END TIME:
15:16:58

# THETA ANGLE:
0.00 ø

# INCIDENCE ANGLE:
75.00 ø

# ACCUMULATION NUMBER:
1

# ELLIPSOMETRIC CONFIGURATION:
-45.00 øModulator
+45.00 øAnalyser

# INTEGRATION TIME:
500 ms

# FIRST POINT:
0.6000 eV

# LAST POINT:
6.5000 eV

# INCREMENT:
0.0250 eV

# NUMBER OF POINTS:
237

# DATA:
eV Hv S0 Psi Delta Is Ic 
0.600 3898.9 54.665 27.864 334.052 -0.36158 -0.56311 
0.625 3898.9 76.039 27.107 330.011 -0.40547 -0.58476 
0.650 3898.9 76.695 25.835 326.363 -0.43453 -0.62020 
0.675 3898.9 78.833 24.522 323.415 -0.45011 -0.65549 
0.700 3302.0 84.340 23.126 319.144 -0.47257 -0.69148 
0.725 2800.4 78.076 21.415 315.755 -0.47435 -0.73336 
0.750 2800.4 78.205 19.473 312.627 -0.46251 -0.77773 
0.775 2501.9 80.981 17.330 309.595 -0.43822 -0.82255 
0.800 1403.4 76.168 14.969 306.732 -0.39997 -0.86656 
0.825 1905.0 63.931 12.517 304.671 -0.34801 -0.90606 
0.850 2006.6 63.439 9.856 303.206 -0.28222 -0.94140 
0.875 1409.7 77.495 7.032 303.541 -0.20254 -0.97003 
0.900 1606.6 67.589 4.544 314.688 -0.11230 -0.98745 
0.925 1708.2 63.987 2.714 349.630 -0.01703 -0.99551 
0.950 1809.8 64.815 3.741 37.619 0.07949 -0.99148 
0.975 1308.1 69.978 6.314 52.782 0.17410 -0.97581 
1.000 1708.2 68.337 9.113 55.591 0.25803 -0.94983 
1.025 1606.6 72.728 11.884 55.064 0.33042 -0.91518 
1.050 1009.7 69.356 14.521 53.465 0.39005 -0.87427 
1.075 1409.7 61.837 16.913 51.872 0.43790 -0.83073 
1.100 1409.7 72.867 19.411 49.607 0.47745 -0.77910 
1.125 1308.1 65.217 21.786 47.575 0.50878 -0.72451 
1.150 1206.5 67.168 24.285 45.687 0.53648 -0.66170 
1.175 1206.5 75.314 26.721 44.504 0.56306 -0.59562 
1.200 1308.1 71.391 29.470 43.017 0.58440 -0.51595 
1.225 908.1 63.872 31.991 40.323 0.58151 -0.43866 
1.250 628.7 62.630 34.368 36.768 0.55782 -0.36267 
1.275 1028.7 62.277 36.842 32.543 0.51626 -0.28095 
1.300 1028.7 66.675 39.368 27.273 0.44941 -0.19533 
1.325 1225.6 62.702 41.793 20.910 0.35468 -0.11170 
1.350 825.5 65.833 43.926 12.002 0.20780 -0.03749 
1.375 1327.2 67.718 44.901 2.667 0.04654 -0.00345 
1.400 1130.3 80.295 44.685 351.556 -0.14683 -0.01098 
1.425 3029.0 60.529 43.234 342.867 -0.29403 -0.06159 
1.450 3930.7 36.179 40.915 334.709 -0.42288 -0.14211 
1.475 780.0 100.089 37.058 328.758 -0.49885 -0.27368 
1.500 553.0 63.872 34.922 322.866 -0.56671 -0.34458 
1.525 664.0 72.411 31.947 319.091 -0.58805 -0.44005 
1.550 605.0 72.494 29.444 314.904 -0.60641 -0.51671 
1.575 641.0 64.040 27.051 311.633 -0.60545 -0.58635 
1.600 641.0 67.045 24.299 308.283 -0.58879 -0.66134 
1.625 587.0 72.911 21.579 304.627 -0.56286 -0.72947 
1.650 604.0 66.930 18.682 301.734 -0.51615 -0.79480 
1.675 604.0 76.363 15.656 298.350 -0.45736 -0.85436 
1.700 588.0 72.079 12.432 296.011 -0.37788 -0.90731 
1.725 578.0 69.589 9.238 295.991 -0.28486 -0.94845 
1.750 568.0 70.600 5.979 300.911 -0.17775 -0.97830 
1.775 558.0 70.709 3.333 325.700 -0.06542 -0.99324 
1.800 538.0 72.105 3.095 30.232 0.05428 -0.99417 
1.825 528.0 69.433 5.643 56.972 0.16407 -0.98066 
1.850 516.0 66.770 8.873 60.055 0.26412 -0.95241 
1.875 506.0 67.286 11.919 59.090 0.34676 -0.91469 
1.900 494.0 67.869 14.838 56.855 0.41454 -0.86884 
1.925 485.0 69.297 17.449 54.223 0.46417 -0.82017 
1.950 475.0 68.299 19.878 51.019 0.49713 -0.76878 
1.975 475.0 76.175 22.134 47.510 0.51472 -0.71608 
2.000 463.0 72.512 24.144 44.052 0.51905 -0.66539 
2.025 463.0 75.070 26.134 40.211 0.51060 -0.61198 
2.050 463.0 75.912 27.951 36.459 0.49208 -0.56062 
2.075 448.0 68.837 29.719 32.130 0.45796 -0.50847 
2.100 448.0 72.734 31.352 27.605 0.41177 -0.45859 
2.125 448.0 74.590 32.769 22.690 0.35111 -0.41409 
2.150 448.0 75.762 33.935 17.103 0.27242 -0.37671 
2.175 439.0 66.386 34.703 10.792 0.17528 -0.35176 
2.200 439.0 69.205 34.885 4.315 0.07060 -0.34580 
2.225 439.0 69.158 34.432 357.600 -0.03906 -0.36059 
2.250 439.0 74.290 33.360 351.313 -0.13874 -0.39522 
2.275 439.0 78.622 31.833 345.824 -0.21948 -0.44360 
2.300 428.0 67.509 29.941 341.043 -0.28101 -0.50177 
2.325 428.0 71.321 27.776 337.134 -0.32043 -0.56565 
2.350 420.0 66.543 25.719 334.273 -0.33943 -0.62335 
2.375 420.0 72.552 23.575 332.239 -0.34148 -0.68008 
2.400 420.0 75.741 21.386 330.927 -0.32998 -0.73406 
2.425 409.0 67.783 19.243 330.741 -0.30417 -0.78275 
2.450 400.0 66.636 17.251 331.628 -0.26917 -0.82410 
2.475 400.0 74.236 15.500 333.965 -0.22606 -0.85716 
2.500 446.0 67.341 13.941 338.352 -0.17252 -0.88391 
2.525 446.0 69.130 12.708 344.242 -0.11655 -0.90322 
2.550 446.0 64.773 11.934 351.670 -0.05862 -0.91448 
2.575 446.0 75.680 11.668 359.531 -0.00325 -0.91819 
2.600 446.0 72.585 11.957 7.518 0.05304 -0.91415 
2.625 429.0 68.574 12.589 14.029 0.10313 -0.90499 
2.650 420.0 67.555 13.525 18.874 0.14711 -0.89061 
2.675 420.0 60.981 14.646 21.994 0.18323 -0.87214 
2.700 429.0 69.366 15.763 24.046 0.21306 -0.85241 
2.725 429.0 67.896 17.095 25.008 0.23756 -0.82717 
2.750 429.0 73.489 18.244 25.077 0.25203 -0.80398 
2.775 429.0 69.200 19.273 24.495 0.25837 -0.78210 
2.800 429.0 70.697 20.275 23.504 0.25927 -0.75985 
2.825 429.0 71.129 21.174 22.109 0.25354 -0.73906 
2.850 429.0 70.478 21.973 20.381 0.24168 -0.71999 
2.875 429.0 69.937 22.616 18.521 0.22553 -0.70423 
2.900 429.0 70.247 23.090 16.595 0.20607 -0.69239 
2.925 429.0 70.622 23.437 14.597 0.18394 -0.68360 
2.950 429.0 70.961 23.675 12.385 0.15775 -0.67752 
2.975 429.0 70.253 23.751 10.317 0.13205 -0.67555 
3.000 429.0 69.241 23.686 8.170 0.10456 -0.67724 
3.025 429.0 67.377 23.471 6.299 0.08017 -0.68274 
3.050 429.0 66.889 23.175 4.671 0.05893 -0.69024 
3.075 429.0 63.761 22.787 3.199 0.03986 -0.69998 
3.100 421.0 72.477 22.335 1.966 0.02412 -0.71117 
3.125 421.0 71.339 21.781 1.030 0.01239 -0.72463 
3.150 421.0 70.990 21.220 0.447 0.00526 -0.73798 
3.175 421.0 66.675 20.638 0.150 0.00172 -0.75155 
3.200 421.0 64.742 20.082 0.261 0.00294 -0.76421 
3.225 421.0 63.921 19.582 0.664 0.00732 -0.77534 
3.250 421.0 64.026 19.114 1.366 0.01475 -0.78556 
3.275 421.0 61.172 18.678 2.407 0.02548 -0.79489 
3.300 421.0 58.886 18.339 3.654 0.03807 -0.80201 
3.325 433.0 69.322 18.146 5.135 0.05298 -0.80602 
3.350 433.0 66.234 18.015 6.770 0.06934 -0.80872 
3.375 433.0 66.895 17.997 8.326 0.08511 -0.80907 
3.400 433.0 69.000 18.100 9.636 0.09886 -0.80696 
3.425 433.0 69.625 18.255 10.815 0.11164 -0.80375 
3.450 433.0 69.848 18.458 11.736 0.12217 -0.79953 
3.475 433.0 68.442 18.678 12.436 0.13066 -0.79488 
3.500 433.0 66.272 18.905 12.922 0.13710 -0.79004 
3.525 433.0 65.976 19.136 13.329 0.14280 -0.78509 
3.550 433.0 65.824 19.367 13.525 0.14633 -0.78007 
3.575 433.0 64.057 19.563 13.702 0.14947 -0.77576 
3.600 433.0 63.460 19.761 13.722 0.15096 -0.77138 
3.625 433.0 63.378 19.925 13.619 0.15088 -0.76772 
3.650 433.0 62.978 20.095 13.523 0.15090 -0.76390 
3.675 433.0 62.807 20.215 13.408 0.15038 -0.76119 
3.700 433.0 62.812 20.299 13.224 0.14887 -0.75930 
3.725 433.0 62.647 20.398 13.064 0.14769 -0.75703 
3.750 433.0 62.329 20.487 12.803 0.14531 -0.75500 
3.775 433.0 59.421 20.483 12.631 0.14336 -0.75509 
3.800 443.0 70.684 20.546 12.422 0.14138 -0.75366 
3.825 443.0 66.682 20.542 12.244 0.13937 -0.75374 
3.850 443.0 65.423 20.555 12.086 0.13767 -0.75346 
3.875 443.0 60.144 20.511 12.017 0.13665 -0.75445 
3.900 456.0 69.372 20.536 11.897 0.13544 -0.75388 
3.925 456.0 64.467 20.483 11.841 0.13453 -0.75510 
3.950 456.0 60.139 20.503 11.837 0.13459 -0.75464 
3.975 467.0 67.816 20.425 11.817 0.13395 -0.75642 
4.000 467.0 64.588 20.390 11.802 0.13359 -0.75723 
4.025 467.0 61.680 20.336 11.945 0.13489 -0.75845 
4.050 479.0 69.249 20.355 12.083 0.13653 -0.75802 
4.075 479.0 66.706 20.339 12.128 0.13694 -0.75839 
4.100 479.0 62.469 20.301 12.347 0.13916 -0.75926 
4.125 479.0 59.949 20.313 12.470 0.14060 -0.75897 
4.150 491.0 67.552 20.314 12.643 0.14252 -0.75895 
4.175 491.0 65.557 20.293 12.787 0.14400 -0.75942 
4.200 491.0 60.757 20.301 12.934 0.14567 -0.75925 
4.225 491.0 60.659 20.310 13.041 0.14690 -0.75906 
4.250 502.0 67.923 20.287 13.239 0.14896 -0.75956 
4.275 502.0 67.480 20.323 13.427 0.15126 -0.75874 
4.300 543.0 68.668 20.378 13.531 0.15274 -0.75751 
4.325 543.0 71.131 20.486 13.790 0.15629 -0.75503 
4.350 543.0 76.390 20.482 13.930 0.15782 -0.75512 
4.375 531.0 65.890 20.491 13.968 0.15830 -0.75492 
4.400 531.0 69.743 20.576 14.142 0.16078 -0.75297 
4.425 531.0 72.335 20.609 14.276 0.16249 -0.75221 
4.450 531.0 74.519 20.646 14.301 0.16301 -0.75135 
4.475 531.0 77.079 20.638 14.431 0.16441 -0.75154 
4.500 531.0 76.298 20.673 14.534 0.16578 -0.75073 
4.525 521.0 66.980 20.687 14.599 0.16660 -0.75041 
4.550 521.0 68.789 20.756 14.618 0.16727 -0.74882 
4.575 521.0 66.879 20.821 14.603 0.16753 -0.74730 
4.600 521.0 65.756 20.839 14.647 0.16813 -0.74690 
4.625 521.0 68.119 20.846 14.674 0.16849 -0.74674 
4.650 521.0 66.138 20.887 14.761 0.16973 -0.74578 
4.675 521.0 64.654 20.905 14.773 0.16999 -0.74535 
4.700 521.0 64.604 20.891 14.806 0.17028 -0.74568 
4.725 532.0 71.992 20.905 14.724 0.16945 -0.74535 
4.750 532.0 71.198 20.938 14.818 0.17071 -0.74460 
4.775 532.0 71.176 20.962 14.898 0.17177 -0.74404 
4.800 532.0 69.784 21.005 14.950 0.17265 -0.74302 
4.825 532.0 66.433 20.975 14.948 0.17243 -0.74373 
4.850 532.0 65.401 20.954 14.966 0.17249 -0.74421 
4.875 532.0 64.032 20.973 14.994 0.17293 -0.74378 
4.900 532.0 61.270 21.007 15.129 0.17469 -0.74299 
4.925 543.0 72.767 21.013 15.163 0.17510 -0.74285 
4.950 543.0 67.525 21.000 15.142 0.17478 -0.74315 
4.975 543.0 66.430 20.996 15.297 0.17651 -0.74323 
5.000 543.0 67.610 21.049 15.394 0.17796 -0.74199 
5.025 543.0 65.097 21.055 15.350 0.17750 -0.74187 
5.050 543.0 62.043 21.065 15.447 0.17867 -0.74161 
5.075 543.0 63.340 21.005 15.421 0.17796 -0.74304 
5.100 543.0 58.257 21.091 15.585 0.18041 -0.74101 
5.125 543.0 58.107 21.020 15.645 0.18059 -0.74268 
5.150 558.0 68.764 21.033 15.740 0.18174 -0.74238 
5.175 558.0 67.671 21.003 15.862 0.18290 -0.74308 
5.200 558.0 63.260 21.014 15.859 0.18295 -0.74283 
5.225 558.0 62.393 21.019 15.912 0.18359 -0.74270 
5.250 558.0 59.975 21.126 15.985 0.18517 -0.74020 
5.275 572.0 70.271 21.027 16.087 0.18561 -0.74251 
5.300 572.0 68.744 21.147 16.136 0.18702 -0.73970 
5.325 572.0 65.956 21.106 16.129 0.18665 -0.74066 
5.350 572.0 64.677 21.178 16.252 0.18855 -0.73898 
5.375 572.0 61.637 21.206 16.224 0.18844 -0.73832 
5.400 572.0 60.862 21.233 16.433 0.19100 -0.73767 
5.425 583.0 67.081 21.151 16.551 0.19174 -0.73960 
5.450 583.0 66.417 21.274 16.440 0.19137 -0.73671 
5.475 583.0 62.774 21.147 16.657 0.19288 -0.73971 
5.500 583.0 62.613 21.217 16.690 0.19378 -0.73806 
5.525 583.0 60.773 21.247 16.882 0.19618 -0.73734 
5.550 598.0 71.342 21.252 16.761 0.19484 -0.73723 
5.575 598.0 67.485 21.197 16.893 0.19592 -0.73852 
5.600 598.0 66.652 21.268 16.988 0.19752 -0.73685 
5.625 598.0 61.060 21.301 17.076 0.19877 -0.73607 
5.650 598.0 60.529 21.348 16.915 0.19730 -0.73496 
5.675 598.0 55.499 21.282 17.016 0.19794 -0.73652 
5.700 615.0 68.623 21.290 17.252 0.20067 -0.73632 
5.725 615.0 66.504 21.328 17.294 0.20143 -0.73544 
5.750 615.0 61.688 21.367 17.432 0.20328 -0.73452 
5.775 615.0 58.622 21.441 17.392 0.20341 -0.73275 
5.800 631.0 67.241 21.351 17.548 0.20448 -0.73488 
5.825 631.0 63.648 21.443 17.645 0.20629 -0.73270 
5.850 631.0 59.518 21.440 17.547 0.20515 -0.73279 
5.875 645.0 66.600 21.426 17.600 0.20564 -0.73311 
5.900 645.0 60.875 21.448 17.817 0.20827 -0.73259 
5.925 661.0 68.991 21.491 17.783 0.20822 -0.73157 
5.950 661.0 63.744 21.491 17.856 0.20905 -0.73158 
5.975 674.0 66.505 21.596 17.766 0.20884 -0.72906 
6.000 674.0 62.067 21.349 17.967 0.20918 -0.73493 
6.025 692.0 70.688 21.525 17.957 0.21046 -0.73075 
6.050 692.0 64.990 21.671 17.909 0.21105 -0.72727 
6.075 705.0 68.926 21.710 18.227 0.21499 -0.72633 
6.100 705.0 67.225 21.659 18.038 0.21244 -0.72755 
6.125 720.0 70.302 21.504 18.162 0.21262 -0.73127 
6.150 720.0 68.110 21.621 17.831 0.20978 -0.72847 
6.175 720.0 61.216 21.506 18.195 0.21300 -0.73122 
6.200 737.0 69.176 21.644 18.422 0.21668 -0.72792 
6.225 737.0 64.916 21.626 18.468 0.21705 -0.72834 
6.250 737.0 59.865 21.713 18.431 0.21734 -0.72626 
6.275 754.0 66.318 21.967 18.066 0.21517 -0.72013 
6.300 754.0 61.616 21.823 18.257 0.21623 -0.72363 
6.325 769.0 65.138 22.252 17.695 0.21305 -0.71320 
6.350 780.0 67.500 21.309 18.996 0.22040 -0.73589 
6.375 780.0 62.529 22.104 19.097 0.22812 -0.71681 
6.400 780.0 56.997 21.904 19.530 0.23141 -0.72166 
6.425 780.0 51.213 21.740 19.387 0.22841 -0.72561 
6.450 780.0 44.829 21.838 18.333 0.21722 -0.72326 
6.475 780.0 39.863 21.731 18.568 0.21904 -0.72582 
6.500 780.0 34.233 21.902 18.129 0.21538 -0.72172 

# MINIMA:
0.600 400.0 34.233 2.714 0.150 -0.60641 -0.99551 

# MAXIMA:
6.500 3930.7 100.089 44.901 359.531 0.58440 -0.00345 

# PEAKS:

# END SPECTRUM

