PE UV                   SPECTRUM    ASCII       PEDS        1.60        
  -1
S19_06.SP
12/04/05
07:48:16.00
12/04/05
07:54:04.00


190.000000
1









4444

SCAN
1
1


0.0
1920.0
2.00
MANUAL



UV/VIS




































#HDR
-1
-1
#GR
NM
%R
0.00002384185791015625
0.0
1000.000000
1.000000
811
8
132.220000
25.632000
#DATA
1000.000000	48.697000  
999.000000	 48.336000  
998.000000	 47.914000  
997.000000	 48.036000  
996.000000	 48.517000  
995.000000	 48.125000  
994.000000	 48.288000  
993.000000	 48.423000  
992.000000	 48.436000  
991.000000	 47.889000  
990.000000	 47.788000  
989.000000	 48.140000  
988.000000	 48.324000  
987.000000	 47.820000  
986.000000	 47.231000  
985.000000	 47.022000  
984.000000	 46.893000  
983.000000	 46.891000  
982.000000	 47.145000  
981.000000	 47.114000  
980.000000	 46.970000  
979.000000	 47.125000  
978.000000	 47.233000  
977.000000	 47.009000  
976.000000	 46.321000  
975.000000	 46.463000  
974.000000	 46.486000  
973.000000	 46.077000  
972.000000	 46.088000  
971.000000	 46.527000  
970.000000	 46.409000  
969.000000	 46.035000  
968.000000	 46.242000  
967.000000	 46.006000  
966.000000	 45.516000  
965.000000	 45.384000  
964.000000	 45.638000  
963.000000	 45.710000  
962.000000	 45.496000  
961.000000	 45.430000  
960.000000	 45.400000  
959.000000	 45.289000  
958.000000	 44.937000  
957.000000	 44.855000  
956.000000	 44.871000  
955.000000	 44.838000  
954.000000	 44.829000  
953.000000	 44.850000  
952.000000	 44.869000  
951.000000	 44.858000  
950.000000	 44.651000  
949.000000	 44.358000  
948.000000	 44.333000  
947.000000	 44.033000  
946.000000	 43.953000  
945.000000	 43.993000  
944.000000	 43.980000  
943.000000	 43.940000  
942.000000	 43.748000  
941.000000	 43.628000  
940.000000	 43.730999  
939.000000	 43.775000  
938.000000	 43.436000  
937.000000	 43.317000  
936.000000	 43.343000  
935.000000	 43.320000  
934.000000	 43.219000  
933.000000	 42.991000  
932.000000	 42.852000  
931.000000	 42.876000  
930.000000	 42.917000  
929.000000	 42.775000  
928.000000	 42.880000  
927.000000	 42.727000  
926.000000	 42.583000  
925.000000	 42.349000  
924.000000	 42.643000  
923.000000	 42.398000  
922.000000	 42.177000  
921.000000	 41.926000  
920.000000	 42.165000  
919.000000	 42.061000  
918.000000	 42.031000  
917.000000	 41.876000  
916.000000	 41.648000  
915.000000	 41.572000  
914.000000	 41.400000  
913.000000	 41.349999  
912.000000	 41.175000  
911.000000	 41.279000  
910.000000	 41.522000  
909.000000	 41.503000  
908.000000	 40.975000  
907.000000	 40.497000  
906.000000	 40.674000  
905.000000	 40.973000  
904.000000	 40.701000  
903.000000	 40.945000  
902.000000	 40.640000  
901.000000	 40.617000  
900.000000	 40.682000  
899.000000	 40.761000  
898.000000	 40.556000  
897.000000	 40.323000  
896.000000	 40.119000  
895.000000	 39.904000  
894.000000	 39.874000  
893.000000	 39.891000  
892.000000	 39.754000  
891.000000	 39.810000  
890.000000	 39.804000  
889.000000	 39.747000  
888.000000	 40.042000  
887.000000	 39.449000  
886.000000	 39.269000  
885.000000	 39.001000  
884.000000	 38.775000  
883.000000	 39.576000  
882.000000	 39.029000  
881.000000	 38.562000  
880.000000	 38.830000  
879.000000	 38.458000  
878.000000	 37.952000  
877.000000	 38.208000  
876.000000	 38.836000  
875.000000	 37.795000  
874.000000	 37.966000  
873.000000	 38.268000  
872.000000	 38.050000  
871.000000	 38.138000  
870.000000	 37.837000  
869.000000	 37.806000  
868.000000	 37.399000  
867.000000	 37.060000  
866.000000	 37.553000  
865.000000	 37.713000  
864.000000	 37.472000  
863.000000	 37.265000  
862.000000	 37.027000  
861.000000	 36.879000  
860.000000	 37.323000  
859.000000	 37.236000  
858.000000	 36.842000  
857.000000	 36.545000  
856.000000	 36.382000  
855.000000	 36.225000  
854.000000	 36.427000  
853.000000	 36.140000  
852.000000	 35.988000  
851.000000	 36.270000  
850.000000	 36.166000  
849.000000	 36.305000  
848.000000	 36.447000  
847.000000	 36.052000  
846.000000	 36.201000  
845.000000	 36.129000  
844.000000	 35.993000  
843.000000	 35.441000  
842.000000	 35.102000  
841.000000	 35.281000  
840.000000	 35.190000  
839.000000	 35.470000  
838.000000	 35.479000  
837.000000	 35.315000  
836.000000	 34.949000  
835.000000	 35.076000  
834.000000	 34.864000  
833.000000	 34.832000  
832.000000	 34.938000  
831.000000	 34.769000  
830.000000	 34.896000  
829.000000	 34.591000  
828.000000	 34.603000  
827.000000	 34.381000  
826.000000	 33.943000  
825.000000	 33.811000  
824.000000	 33.859000  
823.000000	 34.007000  
822.000000	 33.834000  
821.000000	 33.865000  
820.000000	 33.915000  
819.000000	 33.983999  
818.000000	 33.518000  
817.000000	 33.132000  
816.000000	 33.171000  
815.000000	 33.212000  
814.000000	 33.071000  
813.000000	 33.057000  
812.000000	 33.265000  
811.000000	 33.272000  
810.000000	 32.843000  
809.000000	 32.635000  
808.000000	 32.543000  
807.000000	 32.337000  
806.000000	 32.375000  
805.000000	 32.471000  
804.000000	 32.323000  
803.000000	 32.259000  
802.000000	 32.350000  
801.000000	 32.185000  
800.000000	 31.998000  
799.000000	 31.877000  
798.000000	 31.821000  
797.000000	 31.741000  
796.000000	 31.800000  
795.000000	 31.825000  
794.000000	 31.929000  
793.000000	 31.972000  
792.000000	 31.583000  
791.000000	 31.164000  
790.000000	 31.002000  
789.000000	 31.209000  
788.000000	 31.587000  
787.000000	 31.072000  
786.000000	 31.031000  
785.000000	 30.813000  
784.000000	 30.966000  
783.000000	 30.851000  
782.000000	 30.686000  
781.000000	 30.506000  
780.000000	 30.665000  
779.000000	 30.451000  
778.000000	 30.413000  
777.000000	 30.416000  
776.000000	 30.116000  
775.000000	 30.280000  
774.000000	 30.036000  
773.000000	 29.782000  
772.000000	 29.883000  
771.000000	 30.006000  
770.000000	 29.972000  
769.000000	 29.897000  
768.000000	 29.606000  
767.000000	 29.541000  
766.000000	 29.408000  
765.000000	 29.370000  
764.000000	 29.456000  
763.000000	 29.345000  
762.000000	 29.307000  
761.000000	 29.368000  
760.000000	 29.150000  
759.000000	 29.052000  
758.000000	 29.039000  
757.000000	 28.928000  
756.000000	 28.646000  
755.000000	 28.669000  
754.000000	 28.778000  
753.000000	 28.728000  
752.000000	 28.710000  
751.000000	 28.568000  
750.000000	 28.495000  
749.000000	 28.396000  
748.000000	 28.247000  
747.000000	 28.135000  
746.000000	 28.270000  
745.000000	 28.187000  
744.000000	 28.083000  
743.000000	 28.198000  
742.000000	 28.078000  
741.000000	 28.011000  
740.000000	 28.025000  
739.000000	 27.836000  
738.000000	 27.724000  
737.000000	 27.734000  
736.000000	 27.713000  
735.000000	 27.764000  
734.000000	 27.570000  
733.000000	 27.611000  
732.000000	 27.578000  
731.000000	 27.347000  
730.000000	 27.331000  
729.000000	 27.404000  
728.000000	 27.270000  
727.000000	 27.153000  
726.000000	 27.190000  
725.000000	 27.137000  
724.000000	 27.068000  
723.000000	 26.992000  
722.000000	 26.922000  
721.000000	 26.898000  
720.000000	 26.997000  
719.000000	 26.943000  
718.000000	 26.801000  
717.000000	 26.815000  
716.000000	 26.873000  
715.000000	 26.785000  
714.000000	 26.662000  
713.000000	 26.605000  
712.000000	 26.622000  
711.000000	 26.503000  
710.000000	 26.446000  
709.000000	 26.443000  
708.000000	 26.451000  
707.000000	 26.402000  
706.000000	 26.240000  
705.000000	 26.257000  
704.000000	 26.114000  
703.000000	 26.264000  
702.000000	 26.257000  
701.000000	 26.095000  
700.000000	 26.218000  
699.000000	 26.201000  
698.000000	 26.149000  
697.000000	 26.216000  
696.000000	 26.231000  
695.000000	 25.952000  
694.000000	 25.847000  
693.000000	 25.930000  
692.000000	 26.037000  
691.000000	 25.969000  
690.000000	 26.053000  
689.000000	 26.030000  
688.000000	 25.907000  
687.000000	 25.869000  
686.000000	 25.816000  
685.000000	 25.833000  
684.000000	 25.719000  
683.000000	 25.681000  
682.000000	 25.819000  
681.000000	 25.768000  
680.000000	 25.740000  
679.000000	 25.772000  
678.000000	 25.714000  
677.000000	 25.690000  
676.000000	 25.632000  
675.000000	 25.771000  
674.000000	 25.860000  
673.000000	 25.767000  
672.000000	 25.735000  
671.000000	 25.851000  
670.000000	 25.901000  
669.000000	 25.821000  
668.000000	 25.851000  
667.000000	 25.643000  
666.000000	 25.850000  
665.000000	 25.819000  
664.000000	 25.721000  
663.000000	 25.845000  
662.000000	 25.825000  
661.000000	 25.725000  
660.000000	 25.857000  
659.000000	 25.981000  
658.000000	 26.002000  
657.000000	 25.902000  
656.000000	 25.753000  
655.000000	 25.843000  
654.000000	 25.771000  
653.000000	 25.764000  
652.000000	 25.958000  
651.000000	 26.048000  
650.000000	 26.049000  
649.000000	 26.110000  
648.000000	 26.255000  
647.000000	 26.014000  
646.000000	 26.198000  
645.000000	 26.166000  
644.000000	 26.203000  
643.000000	 26.393000  
642.000000	 26.378000  
641.000000	 26.412000  
640.000000	 26.373000  
639.000000	 26.406000  
638.000000	 26.467000  
637.000000	 26.362000  
636.000000	 26.305000  
635.000000	 26.522000  
634.000000	 26.667000  
633.000000	 26.723000  
632.000000	 26.669000  
631.000000	 26.725000  
630.000000	 26.756000  
629.000000	 26.764000  
628.000000	 26.828000  
627.000000	 26.902000  
626.000000	 27.089000  
625.000000	 27.170000  
624.000000	 27.269000  
623.000000	 27.310000  
622.000000	 27.370000  
621.000000	 27.455000  
620.000000	 27.449000  
619.000000	 27.532000  
618.000000	 27.637000  
617.000000	 27.761000  
616.000000	 27.946000  
615.000000	 28.004000  
614.000000	 28.018000  
613.000000	 28.088000  
612.000000	 28.100000  
611.000000	 28.220000  
610.000000	 28.245000  
609.000000	 28.399000  
608.000000	 28.654000  
607.000000	 28.767000  
606.000000	 28.855000  
605.000000	 28.996000  
604.000000	 29.003000  
603.000000	 29.070000  
602.000000	 29.129000  
601.000000	 29.265000  
600.000000	 29.383000  
599.000000	 29.533000  
598.000000	 29.696000  
597.000000	 29.775000  
596.000000	 29.873000  
595.000000	 29.905000  
594.000000	 30.060000  
593.000000	 30.184000  
592.000000	 30.260000  
591.000000	 30.442000  
590.000000	 30.622000  
589.000000	 30.761000  
588.000000	 30.926000  
587.000000	 31.088000  
586.000000	 31.127000  
585.000000	 31.250000  
584.000000	 31.390000  
583.000000	 31.616000  
582.000000	 31.720000  
581.000000	 31.947000  
580.000000	 32.087000  
579.000000	 32.203000  
578.000000	 32.353000  
577.000000	 32.547000  
576.000000	 32.723000  
575.000000	 32.854000  
574.000000	 33.054000  
573.000000	 33.270000  
572.000000	 33.356000  
571.000000	 33.567000  
570.000000	 33.781000  
569.000000	 33.939000  
568.000000	 34.146000  
567.000000	 34.323000  
566.000000	 34.505000  
565.000000	 34.682000  
564.000000	 34.932000  
563.000000	 35.092000  
562.000000	 35.300000  
561.000000	 35.537000  
560.000000	 35.776000  
559.000000	 35.915000  
558.000000	 36.150000  
557.000000	 36.397000  
556.000000	 36.548000  
555.000000	 36.810000  
554.000000	 37.050000  
553.000000	 37.225000  
552.000000	 37.425000  
551.000000	 37.743000  
550.000000	 37.944000  
549.000000	 38.135000  
548.000000	 38.408000  
547.000000	 38.695000  
546.000000	 38.899000  
545.000000	 39.092000  
544.000000	 39.363000  
543.000000	 39.689000  
542.000000	 39.830000  
541.000000	 40.008000  
540.000000	 40.296000  
539.000000	 40.550000  
538.000000	 40.870000  
537.000000	 41.134000  
536.000000	 41.367000  
535.000000	 41.654000  
534.000000	 41.916000  
533.000000	 42.122000  
532.000000	 42.375000  
531.000000	 42.755000  
530.000000	 43.036000  
529.000000	 43.138000  
528.000000	 43.547999  
527.000000	 43.852999  
526.000000	 44.132000  
525.000000	 44.424000  
524.000000	 44.789000  
523.000000	 45.010000  
522.000000	 45.367000  
521.000000	 45.646000  
520.000000	 46.032000  
519.000000	 46.187000  
518.000000	 46.571000  
517.000000	 46.966000  
516.000000	 47.202000  
515.000000	 47.421000  
514.000000	 47.767000  
513.000000	 48.198000  
512.000000	 48.457000  
511.000000	 48.758000  
510.000000	 49.195000  
509.000000	 49.512000  
508.000000	 49.802000  
507.000000	 50.188000  
506.000000	 50.547000  
505.000000	 50.883000  
504.000000	 51.221000  
503.000000	 51.651000  
502.000000	 52.002000  
501.000000	 52.300000  
500.000000	 52.593999  
499.000000	 52.963000  
498.000000	 53.371000  
497.000000	 53.752000  
496.000000	 54.191000  
495.000000	 54.502000  
494.000000	 54.862999  
493.000000	 55.202000  
492.000000	 55.587000  
491.000000	 55.989000  
490.000000	 56.311000  
489.000000	 56.774000  
488.000000	 57.034000  
487.000000	 57.351000  
486.000000	 57.748000  
485.000000	 58.230000  
484.000000	 58.583000  
483.000000	 58.930000  
482.000000	 59.318000  
481.000000	 59.696000  
480.000000	 60.193000  
479.000000	 60.433000  
478.000000	 60.840000  
477.000000	 61.360000  
476.000000	 61.689000  
475.000000	 61.973000  
474.000000	 62.409000  
473.000000	 62.817000  
472.000000	 63.186000  
471.000000	 63.542000  
470.000000	 64.051999  
469.000000	 64.471999  
468.000000	 64.791000  
467.000000	 65.270000  
466.000000	 65.490000  
465.000000	 65.939000  
464.000000	 66.489000  
463.000000	 66.978000  
462.000000	 67.393000  
461.000000	 67.803000  
460.000000	 68.063000  
459.000000	 68.380000  
458.000000	 68.911999  
457.000000	 69.553000  
456.000000	 69.952000  
455.000000	 70.262000  
454.000000	 70.611999  
453.000000	 70.973000  
452.000000	 71.553000  
451.000000	 72.028000  
450.000000	 72.536999  
449.000000	 73.150000  
448.000000	 73.228000  
447.000000	 73.349000  
446.000000	 73.866000  
445.000000	 74.532000  
444.000000	 75.002000  
443.000000	 75.380000  
442.000000	 75.898000  
441.000000	 76.331000  
440.000000	 76.504000  
439.000000	 76.782000  
438.000000	 77.339000  
437.000000	 77.829000  
436.000000	 78.566999  
435.000000	 78.620000  
434.000000	 79.300000  
433.000000	 79.581999  
432.000000	 80.042000  
431.000000	 80.521000  
430.000000	 80.828999  
429.000000	 81.185000  
428.000000	 81.622000  
427.000000	 82.003000  
426.000000	 82.628000  
425.000000	 83.113000  
424.000000	 83.363000  
423.000000	 83.736999  
422.000000	 84.411000  
421.000000	 84.617000  
420.000000	 84.872000  
419.000000	 85.367000  
418.000000	 85.784000  
417.000000	 86.388000  
416.000000	 86.706000  
415.000000	 86.973000  
414.000000	 87.141000  
413.000000	 87.426000  
412.000000	 87.732000  
411.000000	 88.035000  
410.000000	 88.658000  
409.000000	 89.434000  
408.000000	 90.256000  
407.000000	 90.200000  
406.000000	 90.459999  
405.000000	 90.908999  
404.000000	 90.974000  
403.000000	 91.226000  
402.000000	 91.652999  
401.000000	 92.452000  
400.000000	 92.616000  
399.000000	 92.942000  
398.000000	 93.328000  
397.000000	 93.553000  
396.000000	 93.536000  
395.000000	 93.938000  
394.000000	 94.471999  
393.000000	 95.048999  
392.000000	 95.176000  
391.000000	 95.519000  
390.000000	 96.007000  
389.000000	 96.271000  
388.000000	 96.619999  
387.000000	 96.536999  
386.000000	 96.630000  
385.000000	 97.579000  
384.000000	 97.907000  
383.000000	 98.056000  
382.000000	 98.014000  
381.000000	 97.450999  
380.000000	 97.976000  
379.000000	 98.397000  
378.000000	 99.039000  
377.000000	 98.453000  
376.000000	 98.633000  
375.000000	 99.522000  
374.000000	 99.787000  
373.000000	 99.731000  
372.000000	 99.738000  
371.000000	 99.775000  
370.000000	 99.956000  
369.000000	 99.614999  
368.000000	 99.717999  
367.000000	 99.850000  
366.000000	 99.724999  
365.000000	 99.627000  
364.000000	 99.417000  
363.000000	 99.432000  
362.000000	 99.774000  
361.000000	 100.292000 
360.000000	 100.746000 
359.000000	 100.085000 
358.000000	 100.419000 
357.000000	 100.545000 
356.000000	 100.342000 
355.000000	 100.773000 
354.000000	 100.945000 
353.000000	 100.537000 
352.000000	 100.422000 
351.000000	 100.682000 
350.000000	 101.892000 
349.000000	 101.812000 
348.000000	 100.963000 
347.000000	 101.058000 
346.000000	 101.486000 
345.000000	 102.120000 
344.000000	 101.289000 
343.000000	 101.174000 
342.000000	 100.914000 
341.000000	 100.657000 
340.000000	 100.580000 
339.000000	 100.846000 
338.000000	 100.486000 
337.000000	 100.581000 
336.000000	 100.933000 
335.000000	 100.442000 
334.000000	 101.558000 
333.000000	 101.786000 
332.000000	 101.547000 
331.000000	 100.085000 
330.000000	 100.503000 
329.000000	 101.666000 
328.000000	 102.792000 
327.000000	 101.097000 
326.000000	 100.314000 
325.000000	 100.189000 
324.000000	 99.947000  
323.000000	 99.629000  
322.000000	 99.262000  
321.000000	 99.181000  
320.000000	 98.899000  
319.000000	 99.163000  
318.000000	 98.519000  
317.000000	 98.590000  
316.000000	 98.534000  
315.000000	 98.465000  
314.000000	 97.889000  
313.000000	 97.810000  
312.000000	 97.675000  
311.000000	 98.354000  
310.000000	 97.762000  
309.000000	 96.974000  
308.000000	 95.804999  
307.000000	 95.750999  
306.000000	 96.148000  
305.000000	 95.611999  
304.000000	 96.077000  
303.000000	 94.876000  
302.000000	 94.372000  
301.000000	 93.923000  
300.000000	 93.709000  
299.000000	 94.142000  
298.000000	 93.363000  
297.000000	 92.667999  
296.000000	 91.857000  
295.000000	 91.510000  
294.000000	 91.486000  
293.000000	 90.991999  
292.000000	 90.792000  
291.000000	 90.376000  
290.000000	 89.416000  
289.000000	 89.444999  
288.000000	 89.047000  
287.000000	 88.277000  
286.000000	 87.694000  
285.000000	 87.144000  
284.000000	 86.848000  
283.000000	 86.610000  
282.000000	 86.055000  
281.000000	 85.491000  
280.000000	 84.783000  
279.000000	 84.277999  
278.000000	 83.607000  
277.000000	 83.101000  
276.000000	 82.334000  
275.000000	 81.929000  
274.000000	 80.922000  
273.000000	 80.411999  
272.000000	 79.578999  
271.000000	 78.934000  
270.000000	 78.202000  
269.000000	 76.858999  
268.000000	 75.861999  
267.000000	 75.318000  
266.000000	 74.307000  
265.000000	 73.003000  
264.000000	 72.594000  
263.000000	 71.124000  
262.000000	 70.457000  
261.000000	 69.148000  
260.000000	 68.658000  
259.000000	 67.762000  
258.000000	 67.023000  
257.000000	 66.188999  
256.000000	 65.105999  
255.000000	 64.736999  
254.000000	 63.724000  
253.000000	 63.358000  
252.000000	 62.871999  
251.000000	 62.342000  
250.000000	 61.621000  
249.000000	 61.142000  
248.000000	 60.932000  
247.000000	 60.581000  
246.000000	 60.707000  
245.000000	 60.697999  
244.000000	 60.675000  
243.000000	 60.810000  
242.000000	 61.236000  
241.000000	 61.332000  
240.000000	 61.339000  
239.000000	 61.861999  
238.000000	 63.271999  
237.000000	 64.089000  
236.000000	 64.517000  
235.000000	 65.723000  
234.000000	 66.932999  
233.000000	 68.285000  
232.000000	 70.042000  
231.000000	 71.194000  
230.000000	 72.306000  
229.000000	 74.044000  
228.000000	 76.024000  
227.000000	 77.511000  
226.000000	 79.505000  
225.000000	 80.684000  
224.000000	 81.869000  
223.000000	 83.237000  
222.000000	 84.260000  
221.000000	 85.743000  
220.000000	 89.230000  
219.000000	 88.932999  
218.000000	 89.278000  
217.000000	 91.935999  
216.000000	 93.458000  
215.000000	 92.596999  
214.000000	 93.866000  
213.000000	 94.918000  
212.000000	 96.124000  
211.000000	 97.096999  
210.000000	 98.126000  
209.000000	 100.547000 
208.000000	 99.366000  
207.000000	 99.739999  
206.000000	 104.144000 
205.000000	 100.306000 
204.000000	 99.527000  
203.000000	 103.060000 
202.000000	 102.925000 
201.000000	 97.524999  
200.000000	 102.561000 
199.000000	 108.951000 
198.000000	 102.227000 
197.000000	 95.040000  
196.000000	 106.673000 
195.000000	 94.277999  
194.000000	 82.654000  
193.000000	 100.886000 
192.000000	 132.220000 
191.000000	 112.582000 
190.000000	 113.487000 

