#                                                                                
# Lorentzian broadening with gamma= 0.100000  [eV]
# Im(epsilon) shifted by   0.0000   [eV]
# No intraband contributions added
#
# Energy Im_eps_xx Im_eps_yy Im_eps_zz
0.013610 0.500579E-02 0.500579E-02 0.529436E-02
0.040820 0.502370E-02 0.502370E-02 0.531318E-02
0.068030 0.504170E-02 0.504170E-02 0.533210E-02
0.095240 0.505981E-02 0.505981E-02 0.535113E-02
0.122450 0.507802E-02 0.507802E-02 0.537027E-02
0.149660 0.509634E-02 0.509634E-02 0.538951E-02
0.176870 0.511476E-02 0.511476E-02 0.540887E-02
0.204090 0.513330E-02 0.513330E-02 0.542834E-02
0.231300 0.515194E-02 0.515194E-02 0.544792E-02
0.258510 0.517069E-02 0.517069E-02 0.546761E-02
0.285720 0.518955E-02 0.518955E-02 0.548742E-02
0.312930 0.520851E-02 0.520851E-02 0.550733E-02
0.340140 0.522759E-02 0.522759E-02 0.552737E-02
0.367350 0.524678E-02 0.524678E-02 0.554751E-02
0.394570 0.526610E-02 0.526610E-02 0.556779E-02
0.421780 0.528552E-02 0.528552E-02 0.558817E-02
0.448990 0.530505E-02 0.530505E-02 0.560867E-02
0.476200 0.532470E-02 0.532470E-02 0.562929E-02
0.503410 0.534447E-02 0.534447E-02 0.565003E-02
0.530620 0.536435E-02 0.536435E-02 0.567090E-02
0.557830 0.538436E-02 0.538436E-02 0.569188E-02
0.585040 0.540448E-02 0.540448E-02 0.571299E-02
0.612260 0.542474E-02 0.542474E-02 0.573424E-02
0.639470 0.544510E-02 0.544510E-02 0.575560E-02
0.666680 0.546560E-02 0.546560E-02 0.577708E-02
0.693890 0.548621E-02 0.548621E-02 0.579870E-02
0.721100 0.550695E-02 0.550695E-02 0.582044E-02
0.748310 0.552782E-02 0.552782E-02 0.584232E-02
0.775520 0.554882E-02 0.554882E-02 0.586432E-02
0.802740 0.556995E-02 0.556995E-02 0.588647E-02
0.829950 0.559120E-02 0.559120E-02 0.590874E-02
0.857160 0.561258E-02 0.561258E-02 0.593114E-02
0.884370 0.563410E-02 0.563410E-02 0.595368E-02
0.911580 0.565575E-02 0.565575E-02 0.597636E-02
0.938790 0.567753E-02 0.567753E-02 0.599918E-02
0.966000 0.569945E-02 0.569945E-02 0.602213E-02
0.993220 0.572152E-02 0.572152E-02 0.604523E-02
1.020430 0.574371E-02 0.574371E-02 0.606847E-02
1.047640 0.576605E-02 0.576605E-02 0.609185E-02
1.074850 0.578852E-02 0.578852E-02 0.611537E-02
1.102060 0.581114E-02 0.581114E-02 0.613904E-02
1.129270 0.583389E-02 0.583389E-02 0.616285E-02
1.156480 0.585680E-02 0.585680E-02 0.618681E-02
1.183700 0.587985E-02 0.587985E-02 0.621093E-02
1.210910 0.590305E-02 0.590305E-02 0.623519E-02
1.238120 0.592639E-02 0.592639E-02 0.625961E-02
1.265330 0.594988E-02 0.594988E-02 0.628417E-02
1.292540 0.597353E-02 0.597353E-02 0.630889E-02
1.319750 0.599732E-02 0.599732E-02 0.633377E-02
1.346960 0.602127E-02 0.602127E-02 0.635880E-02
1.374180 0.604538E-02 0.604538E-02 0.638400E-02
1.401390 0.606965E-02 0.606965E-02 0.640935E-02
1.428600 0.609406E-02 0.609406E-02 0.643487E-02
1.455810 0.611864E-02 0.611864E-02 0.646054E-02
1.483020 0.614338E-02 0.614338E-02 0.648638E-02
1.510230 0.616828E-02 0.616828E-02 0.651239E-02
1.537440 0.619335E-02 0.619335E-02 0.653856E-02
1.564660 0.621859E-02 0.621859E-02 0.656491E-02
1.591870 0.624399E-02 0.624399E-02 0.659142E-02
1.619080 0.626955E-02 0.626955E-02 0.661810E-02
1.646290 0.629529E-02 0.629529E-02 0.664496E-02
1.673500 0.632120E-02 0.632120E-02 0.667199E-02
1.700710 0.634728E-02 0.634728E-02 0.669920E-02
1.727920 0.637354E-02 0.637354E-02 0.672658E-02
1.755130 0.639997E-02 0.639997E-02 0.675415E-02
1.782350 0.642659E-02 0.642659E-02 0.678191E-02
1.809560 0.645339E-02 0.645339E-02 0.680984E-02
1.836770 0.648036E-02 0.648036E-02 0.683795E-02
1.863980 0.650752E-02 0.650752E-02 0.686626E-02
1.891190 0.653486E-02 0.653486E-02 0.689475E-02
1.918400 0.656239E-02 0.656239E-02 0.692343E-02
1.945610 0.659011E-02 0.659011E-02 0.695230E-02
1.972830 0.661804E-02 0.661804E-02 0.698138E-02
2.000040 0.664614E-02 0.664614E-02 0.701064E-02
2.027250 0.667444E-02 0.667444E-02 0.704010E-02
2.054460 0.670294E-02 0.670294E-02 0.706976E-02
2.081670 0.673163E-02 0.673163E-02 0.709962E-02
2.108880 0.676052E-02 0.676052E-02 0.712969E-02
2.136090 0.678962E-02 0.678962E-02 0.715996E-02
2.163310 0.681894E-02 0.681894E-02 0.719044E-02
2.190520 0.684845E-02 0.684845E-02 0.722113E-02
2.217730 0.687816E-02 0.687816E-02 0.725203E-02
2.244940 0.690809E-02 0.690809E-02 0.728314E-02
2.272150 0.693824E-02 0.693824E-02 0.731446E-02
2.299360 0.696859E-02 0.696859E-02 0.734601E-02
2.326570 0.699917E-02 0.699917E-02 0.737777E-02
2.353790 0.702998E-02 0.702998E-02 0.740977E-02
2.381000 0.706100E-02 0.706100E-02 0.744198E-02
2.408210 0.709224E-02 0.709224E-02 0.747441E-02
2.435420 0.712371E-02 0.712371E-02 0.750708E-02
2.462630 0.715540E-02 0.715540E-02 0.753997E-02
2.489840 0.718733E-02 0.718733E-02 0.757310E-02
2.517050 0.721950E-02 0.721950E-02 0.760646E-02
2.544270 0.725191E-02 0.725191E-02 0.764008E-02
2.571480 0.728455E-02 0.728455E-02 0.767392E-02
2.598690 0.731743E-02 0.731743E-02 0.770801E-02
2.625900 0.735055E-02 0.735055E-02 0.774234E-02
2.653110 0.738393E-02 0.738393E-02 0.777692E-02
2.680320 0.741755E-02 0.741755E-02 0.781174E-02
2.707530 0.745142E-02 0.745142E-02 0.784683E-02
2.734750 0.748556E-02 0.748556E-02 0.788218E-02
2.761960 0.751994E-02 0.751994E-02 0.791777E-02
2.789170 0.755459E-02 0.755459E-02 0.795363E-02
2.816380 0.758950E-02 0.758950E-02 0.798975E-02
2.843590 0.762467E-02 0.762467E-02 0.802613E-02
2.870800 0.766012E-02 0.766012E-02 0.806279E-02
2.898010 0.769583E-02 0.769583E-02 0.809972E-02
2.925220 0.773182E-02 0.773182E-02 0.813692E-02
2.952440 0.776810E-02 0.776810E-02 0.817442E-02
2.979650 0.780465E-02 0.780465E-02 0.821218E-02
3.006860 0.784149E-02 0.784149E-02 0.825022E-02
3.034070 0.787861E-02 0.787861E-02 0.828856E-02
3.061280 0.791602E-02 0.791602E-02 0.832718E-02
3.088490 0.795373E-02 0.795373E-02 0.836609E-02
3.115700 0.799173E-02 0.799173E-02 0.840531E-02
3.142920 0.803005E-02 0.803005E-02 0.844483E-02
3.170130 0.806866E-02 0.806866E-02 0.848465E-02
3.197340 0.810758E-02 0.810758E-02 0.852477E-02
3.224550 0.814681E-02 0.814681E-02 0.856520E-02
3.251760 0.818635E-02 0.818635E-02 0.860594E-02
3.278970 0.822621E-02 0.822621E-02 0.864701E-02
3.306180 0.826640E-02 0.826640E-02 0.868839E-02
3.333400 0.830693E-02 0.830693E-02 0.873011E-02
3.360610 0.834777E-02 0.834777E-02 0.877214E-02
3.387820 0.838894E-02 0.838894E-02 0.881450E-02
3.415030 0.843046E-02 0.843046E-02 0.885720E-02
3.442240 0.847231E-02 0.847231E-02 0.890023E-02
3.469450 0.851451E-02 0.851451E-02 0.894361E-02
3.496660 0.855707E-02 0.855707E-02 0.898734E-02
3.523880 0.859999E-02 0.859999E-02 0.903143E-02
3.551090 0.864326E-02 0.864326E-02 0.907586E-02
3.578300 0.868689E-02 0.868689E-02 0.912065E-02
3.605510 0.873088E-02 0.873088E-02 0.916580E-02
3.632720 0.877525E-02 0.877525E-02 0.921131E-02
3.659930 0.882000E-02 0.882000E-02 0.925720E-02
3.687140 0.886513E-02 0.886513E-02 0.930347E-02
3.714360 0.891066E-02 0.891066E-02 0.935013E-02
3.741570 0.895657E-02 0.895657E-02 0.939716E-02
3.768780 0.900287E-02 0.900287E-02 0.944458E-02
3.795990 0.904957E-02 0.904957E-02 0.949239E-02
3.823200 0.909668E-02 0.909668E-02 0.954060E-02
3.850410 0.914420E-02 0.914420E-02 0.958921E-02
3.877620 0.919214E-02 0.919214E-02 0.963823E-02
3.904840 0.924052E-02 0.924052E-02 0.968769E-02
3.932050 0.928931E-02 0.928931E-02 0.973754E-02
3.959260 0.933853E-02 0.933853E-02 0.978782E-02
3.986470 0.938819E-02 0.938819E-02 0.983852E-02
4.013680 0.943829E-02 0.943829E-02 0.988966E-02
4.040890 0.948885E-02 0.948885E-02 0.994124E-02
4.068100 0.953986E-02 0.953986E-02 0.999327E-02
4.095310 0.959134E-02 0.959134E-02 0.100457E-01
4.122530 0.964330E-02 0.964330E-02 0.100987E-01
4.149740 0.969572E-02 0.969572E-02 0.101521E-01
4.176950 0.974862E-02 0.974862E-02 0.102059E-01
4.204160 0.980201E-02 0.980201E-02 0.102603E-01
4.231370 0.985589E-02 0.985589E-02 0.103151E-01
4.258580 0.991027E-02 0.991027E-02 0.103704E-01
4.285790 0.996517E-02 0.996517E-02 0.104262E-01
4.313010 0.100206E-01 0.100206E-01 0.104825E-01
4.340220 0.100765E-01 0.100765E-01 0.105393E-01
4.367430 0.101330E-01 0.101330E-01 0.105966E-01
4.394640 0.101900E-01 0.101900E-01 0.106544E-01
4.421850 0.102475E-01 0.102475E-01 0.107128E-01
4.449060 0.103056E-01 0.103056E-01 0.107716E-01
4.476270 0.103643E-01 0.103643E-01 0.108311E-01
4.503490 0.104235E-01 0.104235E-01 0.108910E-01
4.530700 0.104833E-01 0.104833E-01 0.109516E-01
4.557910 0.105437E-01 0.105437E-01 0.110126E-01
4.585120 0.106047E-01 0.106047E-01 0.110743E-01
4.612330 0.106663E-01 0.106663E-01 0.111365E-01
4.639540 0.107285E-01 0.107285E-01 0.111993E-01
4.666750 0.107913E-01 0.107913E-01 0.112627E-01
4.693970 0.108548E-01 0.108548E-01 0.113268E-01
4.721180 0.109189E-01 0.109189E-01 0.113914E-01
4.748390 0.109836E-01 0.109836E-01 0.114566E-01
4.775600 0.110490E-01 0.110490E-01 0.115225E-01
4.802810 0.111150E-01 0.111150E-01 0.115890E-01
4.830020 0.111818E-01 0.111818E-01 0.116561E-01
4.857230 0.112492E-01 0.112492E-01 0.117239E-01
4.884450 0.113174E-01 0.113174E-01 0.117924E-01
4.911660 0.113862E-01 0.113862E-01 0.118615E-01
4.938870 0.114558E-01 0.114558E-01 0.119313E-01
4.966080 0.115261E-01 0.115261E-01 0.120018E-01
4.993290 0.115971E-01 0.115971E-01 0.120730E-01
5.020500 0.116689E-01 0.116689E-01 0.121450E-01
5.047710 0.117415E-01 0.117415E-01 0.122176E-01
5.074930 0.118149E-01 0.118149E-01 0.122910E-01
5.102140 0.118890E-01 0.118890E-01 0.123651E-01
5.129350 0.119640E-01 0.119640E-01 0.124400E-01
5.156560 0.120398E-01 0.120398E-01 0.125156E-01
5.183770 0.121164E-01 0.121164E-01 0.125921E-01
5.210980 0.121938E-01 0.121938E-01 0.126693E-01
5.238190 0.122721E-01 0.122721E-01 0.127473E-01
5.265400 0.123513E-01 0.123513E-01 0.128261E-01
5.292620 0.124315E-01 0.124315E-01 0.129058E-01
5.319830 0.125125E-01 0.125125E-01 0.129863E-01
5.347040 0.125944E-01 0.125944E-01 0.130677E-01
5.374250 0.126773E-01 0.126773E-01 0.131499E-01
5.401460 0.127611E-01 0.127611E-01 0.132330E-01
5.428670 0.128459E-01 0.128459E-01 0.133171E-01
5.455880 0.129316E-01 0.129316E-01 0.134020E-01
5.483100 0.130185E-01 0.130185E-01 0.134879E-01
5.510310 0.131063E-01 0.131063E-01 0.135746E-01
5.537520 0.131951E-01 0.131951E-01 0.136624E-01
5.564730 0.132851E-01 0.132851E-01 0.137511E-01
5.591940 0.133761E-01 0.133761E-01 0.138408E-01
5.619150 0.134682E-01 0.134682E-01 0.139315E-01
5.646360 0.135614E-01 0.135614E-01 0.140233E-01
5.673580 0.136558E-01 0.136558E-01 0.141161E-01
5.700790 0.137514E-01 0.137514E-01 0.142099E-01
5.728000 0.138481E-01 0.138481E-01 0.143048E-01
5.755210 0.139461E-01 0.139461E-01 0.144008E-01
5.782420 0.140453E-01 0.140453E-01 0.144979E-01
5.809630 0.141457E-01 0.141457E-01 0.145961E-01
5.836840 0.142474E-01 0.142474E-01 0.146955E-01
5.864060 0.143505E-01 0.143505E-01 0.147961E-01
5.891270 0.144549E-01 0.144549E-01 0.148979E-01
5.918480 0.145606E-01 0.145606E-01 0.150009E-01
5.945690 0.146677E-01 0.146677E-01 0.151051E-01
5.972900 0.147763E-01 0.147763E-01 0.152105E-01
6.000110 0.148863E-01 0.148863E-01 0.153173E-01
6.027320 0.149977E-01 0.149977E-01 0.154254E-01
6.054540 0.151108E-01 0.151108E-01 0.155348E-01
6.081750 0.152253E-01 0.152253E-01 0.156455E-01
6.108960 0.153414E-01 0.153414E-01 0.157577E-01
6.136170 0.154591E-01 0.154591E-01 0.158712E-01
6.163380 0.155784E-01 0.155784E-01 0.159862E-01
6.190590 0.156995E-01 0.156995E-01 0.161026E-01
6.217800 0.158222E-01 0.158222E-01 0.162205E-01
6.245020 0.159468E-01 0.159468E-01 0.163400E-01
6.272230 0.160731E-01 0.160731E-01 0.164610E-01
6.299440 0.162012E-01 0.162012E-01 0.165836E-01
6.326650 0.163312E-01 0.163312E-01 0.167078E-01
6.353860 0.164632E-01 0.164632E-01 0.168337E-01
6.381070 0.165971E-01 0.165971E-01 0.169612E-01
6.408280 0.167330E-01 0.167330E-01 0.170904E-01
6.435490 0.168710E-01 0.168710E-01 0.172214E-01
6.462710 0.170112E-01 0.170112E-01 0.173542E-01
6.489920 0.171535E-01 0.171535E-01 0.174888E-01
6.517130 0.172979E-01 0.172979E-01 0.176253E-01
6.544340 0.174447E-01 0.174447E-01 0.177636E-01
6.571550 0.175938E-01 0.175938E-01 0.179039E-01
6.598760 0.177453E-01 0.177453E-01 0.180462E-01
6.625970 0.178993E-01 0.178993E-01 0.181906E-01
6.653190 0.180558E-01 0.180558E-01 0.183370E-01
6.680400 0.182148E-01 0.182148E-01 0.184855E-01
6.707610 0.183765E-01 0.183765E-01 0.186362E-01
6.734820 0.185410E-01 0.185410E-01 0.187892E-01
6.762030 0.187082E-01 0.187082E-01 0.189444E-01
6.789240 0.188783E-01 0.188783E-01 0.191019E-01
6.816450 0.190514E-01 0.190514E-01 0.192618E-01
6.843670 0.192276E-01 0.192276E-01 0.194242E-01
6.870880 0.194069E-01 0.194069E-01 0.195890E-01
6.898090 0.195894E-01 0.195894E-01 0.197564E-01
6.925300 0.197752E-01 0.197752E-01 0.199264E-01
6.952510 0.199644E-01 0.199644E-01 0.200991E-01
6.979720 0.201572E-01 0.201572E-01 0.202746E-01
7.006930 0.203536E-01 0.203536E-01 0.204528E-01
7.034150 0.205538E-01 0.205538E-01 0.206341E-01
7.061360 0.207578E-01 0.207578E-01 0.208182E-01
7.088570 0.209658E-01 0.209658E-01 0.210054E-01
7.115780 0.211779E-01 0.211779E-01 0.211957E-01
7.142990 0.213943E-01 0.213943E-01 0.213892E-01
7.170200 0.216151E-01 0.216151E-01 0.215860E-01
7.197410 0.218405E-01 0.218405E-01 0.217862E-01
7.224630 0.220706E-01 0.220706E-01 0.219900E-01
7.251840 0.223056E-01 0.223056E-01 0.221973E-01
7.279050 0.225456E-01 0.225456E-01 0.224082E-01
7.306260 0.227909E-01 0.227909E-01 0.226230E-01
7.333470 0.230415E-01 0.230415E-01 0.228416E-01
7.360680 0.232979E-01 0.232979E-01 0.230643E-01
7.387890 0.235601E-01 0.235601E-01 0.232911E-01
7.415110 0.238285E-01 0.238285E-01 0.235222E-01
7.442320 0.241031E-01 0.241031E-01 0.237577E-01
7.469530 0.243844E-01 0.243844E-01 0.239976E-01
7.496740 0.246725E-01 0.246725E-01 0.242423E-01
7.523950 0.249677E-01 0.249677E-01 0.244918E-01
7.551160 0.252705E-01 0.252705E-01 0.247462E-01
7.578370 0.255810E-01 0.255810E-01 0.250058E-01
7.605580 0.258998E-01 0.258998E-01 0.252707E-01
7.632800 0.262271E-01 0.262271E-01 0.255412E-01
7.660010 0.265633E-01 0.265633E-01 0.258173E-01
7.687220 0.269089E-01 0.269089E-01 0.260993E-01
7.714430 0.272643E-01 0.272643E-01 0.263874E-01
7.741640 0.276301E-01 0.276301E-01 0.266818E-01
7.768850 0.280067E-01 0.280067E-01 0.269827E-01
7.796060 0.283948E-01 0.283948E-01 0.272905E-01
7.823280 0.287951E-01 0.287951E-01 0.276054E-01
7.850490 0.292080E-01 0.292080E-01 0.279276E-01
7.877700 0.296344E-01 0.296344E-01 0.282574E-01
7.904910 0.300752E-01 0.300752E-01 0.285951E-01
7.932120 0.305311E-01 0.305311E-01 0.289411E-01
7.959330 0.310032E-01 0.310032E-01 0.292957E-01
7.986540 0.314924E-01 0.314924E-01 0.296593E-01
8.013760 0.320002E-01 0.320002E-01 0.300324E-01
8.040970 0.325274E-01 0.325274E-01 0.304152E-01
8.068180 0.330757E-01 0.330757E-01 0.308083E-01
8.095390 0.336466E-01 0.336466E-01 0.312121E-01
8.122600 0.342419E-01 0.342419E-01 0.316272E-01
8.149810 0.348634E-01 0.348634E-01 0.320541E-01
8.177020 0.355135E-01 0.355135E-01 0.324934E-01
8.204240 0.361949E-01 0.361949E-01 0.329460E-01
8.231450 0.369098E-01 0.369098E-01 0.334121E-01
8.258660 0.376619E-01 0.376619E-01 0.338929E-01
8.285870 0.384547E-01 0.384547E-01 0.343890E-01
8.313080 0.392926E-01 0.392926E-01 0.349014E-01
8.340290 0.401807E-01 0.401807E-01 0.354311E-01
8.367500 0.411248E-01 0.411248E-01 0.359793E-01
8.394720 0.421323E-01 0.421323E-01 0.365472E-01
8.421930 0.432109E-01 0.432109E-01 0.371360E-01
8.449140 0.443712E-01 0.443712E-01 0.377473E-01
8.476350 0.456258E-01 0.456258E-01 0.383828E-01
8.503560 0.469903E-01 0.469903E-01 0.390447E-01
8.530770 0.484847E-01 0.484847E-01 0.397350E-01
8.557980 0.501347E-01 0.501347E-01 0.404566E-01
8.585200 0.519743E-01 0.519743E-01 0.412129E-01
8.612410 0.540453E-01 0.540453E-01 0.420071E-01
8.639620 0.564027E-01 0.564027E-01 0.428440E-01
8.666830 0.591115E-01 0.591115E-01 0.437289E-01
8.694040 0.622432E-01 0.622432E-01 0.446678E-01
8.721250 0.658710E-01 0.658710E-01 0.456674E-01
8.748460 0.700687E-01 0.700687E-01 0.467348E-01
8.775670 0.749176E-01 0.749176E-01 0.478776E-01
8.802890 0.805213E-01 0.805213E-01 0.491048E-01
8.830100 0.870046E-01 0.870046E-01 0.504252E-01
8.857310 0.945167E-01 0.945167E-01 0.518504E-01
8.884520 0.103196E+00 0.103196E+00 0.533934E-01
8.911730 0.113143E+00 0.113143E+00 0.550672E-01
8.938940 0.124403E+00 0.124403E+00 0.568837E-01
8.966150 0.136965E+00 0.136965E+00 0.588533E-01
8.993370 0.150772E+00 0.150772E+00 0.609914E-01
9.020580 0.165692E+00 0.165692E+00 0.633219E-01
9.047790 0.181539E+00 0.181539E+00 0.658816E-01
9.075000 0.198061E+00 0.198061E+00 0.687124E-01
9.102210 0.214962E+00 0.214962E+00 0.718597E-01
9.129420 0.231932E+00 0.231932E+00 0.753710E-01
9.156630 0.248663E+00 0.248663E+00 0.792942E-01
9.183850 0.264860E+00 0.264860E+00 0.836755E-01
9.211060 0.280198E+00 0.280198E+00 0.885489E-01
9.238270 0.294441E+00 0.294441E+00 0.939437E-01
9.265480 0.307545E+00 0.307545E+00 0.998845E-01
9.292690 0.319660E+00 0.319660E+00 0.106402E+00
9.319900 0.330999E+00 0.330999E+00 0.113547E+00
9.347110 0.341751E+00 0.341751E+00 0.121401E+00
9.374330 0.352072E+00 0.352072E+00 0.130092E+00
9.401540 0.362070E+00 0.362070E+00 0.139771E+00
9.428750 0.371831E+00 0.371831E+00 0.150605E+00
9.455960 0.381404E+00 0.381404E+00 0.162728E+00
9.483170 0.390826E+00 0.390826E+00 0.176228E+00
9.510380 0.400132E+00 0.400132E+00 0.191139E+00
9.537590 0.409366E+00 0.409366E+00 0.207450E+00
9.564810 0.418574E+00 0.418574E+00 0.225119E+00
9.592020 0.427796E+00 0.427796E+00 0.244046E+00
9.619230 0.437074E+00 0.437074E+00 0.264102E+00
9.646440 0.446434E+00 0.446434E+00 0.285083E+00
9.673650 0.455881E+00 0.455881E+00 0.306710E+00
9.700860 0.465407E+00 0.465407E+00 0.328658E+00
9.728070 0.474996E+00 0.474996E+00 0.350614E+00
9.755290 0.484642E+00 0.484642E+00 0.372352E+00
9.782500 0.494352E+00 0.494352E+00 0.393693E+00
9.809710 0.504155E+00 0.504155E+00 0.414424E+00
9.836920 0.514082E+00 0.514082E+00 0.434095E+00
9.864130 0.524145E+00 0.524145E+00 0.452177E+00
9.891340 0.534339E+00 0.534339E+00 0.468520E+00
9.918550 0.544639E+00 0.544639E+00 0.483484E+00
9.945760 0.555018E+00 0.555018E+00 0.497646E+00
9.972980 0.565467E+00 0.565467E+00 0.511552E+00
10.000190 0.575992E+00 0.575992E+00 0.525603E+00
10.027400 0.586651E+00 0.586651E+00 0.540087E+00
10.054610 0.597527E+00 0.597527E+00 0.555179E+00
10.081820 0.608736E+00 0.608736E+00 0.570974E+00
10.109030 0.620398E+00 0.620398E+00 0.587510E+00
10.136240 0.632582E+00 0.632582E+00 0.604776E+00
10.163460 0.645304E+00 0.645304E+00 0.622736E+00
10.190670 0.658550E+00 0.658550E+00 0.641302E+00
10.217880 0.672330E+00 0.672330E+00 0.660395E+00
10.245090 0.686652E+00 0.686652E+00 0.679924E+00
10.272300 0.701517E+00 0.701517E+00 0.699796E+00
10.299510 0.716902E+00 0.716902E+00 0.719917E+00
10.326720 0.732796E+00 0.732796E+00 0.740189E+00
10.353940 0.749258E+00 0.749258E+00 0.760517E+00
10.381150 0.766388E+00 0.766388E+00 0.780791E+00
10.408360 0.784320E+00 0.784320E+00 0.800938E+00
10.435570 0.803195E+00 0.803195E+00 0.820910E+00
10.462780 0.823162E+00 0.823162E+00 0.840731E+00
10.489990 0.844376E+00 0.844376E+00 0.860524E+00
10.517200 0.866996E+00 0.866996E+00 0.880503E+00
10.544420 0.891178E+00 0.891178E+00 0.900926E+00
10.571630 0.917041E+00 0.917041E+00 0.921993E+00
10.598840 0.944676E+00 0.944676E+00 0.943857E+00
10.626050 0.974038E+00 0.974038E+00 0.966519E+00
10.653260 0.100490E+01 0.100490E+01 0.989780E+00
10.680470 0.103690E+01 0.103690E+01 0.101327E+01
10.707680 0.106959E+01 0.106959E+01 0.103649E+01
10.734900 0.110256E+01 0.110256E+01 0.105895E+01
10.762110 0.113540E+01 0.113540E+01 0.108016E+01
10.789320 0.116782E+01 0.116782E+01 0.109986E+01
10.816530 0.119964E+01 0.119964E+01 0.111810E+01
10.843740 0.123087E+01 0.123087E+01 0.113511E+01
10.870950 0.126158E+01 0.126158E+01 0.115114E+01
10.898160 0.129179E+01 0.129179E+01 0.116642E+01
10.925380 0.132150E+01 0.132150E+01 0.118107E+01
10.952590 0.135062E+01 0.135062E+01 0.119507E+01
10.979800 0.137886E+01 0.137886E+01 0.120831E+01
11.007010 0.140554E+01 0.140554E+01 0.122045E+01
11.034220 0.142972E+01 0.142972E+01 0.123119E+01
11.061430 0.145065E+01 0.145065E+01 0.124053E+01
11.088640 0.146811E+01 0.146811E+01 0.124898E+01
11.115850 0.148243E+01 0.148243E+01 0.125743E+01
11.143070 0.149417E+01 0.149417E+01 0.126680E+01
11.170280 0.150391E+01 0.150391E+01 0.127779E+01
11.197490 0.151214E+01 0.151214E+01 0.129091E+01
11.224700 0.151931E+01 0.151931E+01 0.130660E+01
11.251910 0.152600E+01 0.152600E+01 0.132542E+01
11.279120 0.153293E+01 0.153293E+01 0.134807E+01
11.306330 0.154084E+01 0.154084E+01 0.137536E+01
11.333550 0.155028E+01 0.155028E+01 0.140807E+01
11.360760 0.156150E+01 0.156150E+01 0.144650E+01
11.387970 0.157434E+01 0.157434E+01 0.148984E+01
11.415180 0.158824E+01 0.158824E+01 0.153569E+01
11.442390 0.160254E+01 0.160254E+01 0.158048E+01
11.469600 0.161685E+01 0.161685E+01 0.162094E+01
11.496810 0.163085E+01 0.163085E+01 0.165523E+01
11.524030 0.164405E+01 0.164405E+01 0.168314E+01
11.551240 0.165577E+01 0.165577E+01 0.170536E+01
11.578450 0.166561E+01 0.166561E+01 0.172246E+01
11.605660 0.167384E+01 0.167384E+01 0.173458E+01
11.632870 0.168134E+01 0.168134E+01 0.174221E+01
11.660080 0.168936E+01 0.168936E+01 0.174668E+01
11.687290 0.169918E+01 0.169918E+01 0.174991E+01
11.714510 0.171183E+01 0.171183E+01 0.175369E+01
11.741720 0.172777E+01 0.172777E+01 0.175913E+01
11.768930 0.174680E+01 0.174680E+01 0.176667E+01
11.796140 0.176786E+01 0.176786E+01 0.177637E+01
11.823350 0.178867E+01 0.178867E+01 0.178806E+01
11.850560 0.180537E+01 0.180537E+01 0.180167E+01
11.877770 0.181306E+01 0.181306E+01 0.181747E+01
11.904990 0.180850E+01 0.180850E+01 0.183594E+01
11.932200 0.179296E+01 0.179296E+01 0.185721E+01
11.959410 0.177095E+01 0.177095E+01 0.188092E+01
11.986620 0.174665E+01 0.174665E+01 0.190656E+01
12.013830 0.172224E+01 0.172224E+01 0.193381E+01
12.041040 0.169830E+01 0.169830E+01 0.196234E+01
12.068250 0.167482E+01 0.167482E+01 0.199102E+01
12.095470 0.165134E+01 0.165134E+01 0.201742E+01
12.122680 0.162664E+01 0.162664E+01 0.203817E+01
12.149890 0.159883E+01 0.159883E+01 0.205031E+01
12.177100 0.156636E+01 0.156636E+01 0.205246E+01
12.204310 0.152933E+01 0.152933E+01 0.204517E+01
12.231520 0.149020E+01 0.149020E+01 0.203069E+01
12.258730 0.145255E+01 0.145255E+01 0.201238E+01
12.285940 0.141919E+01 0.141919E+01 0.199364E+01
12.313160 0.139142E+01 0.139142E+01 0.197678E+01
12.340370 0.136951E+01 0.136951E+01 0.196263E+01
12.367580 0.135336E+01 0.135336E+01 0.195105E+01
12.394790 0.134293E+01 0.134293E+01 0.194160E+01
12.422000 0.133840E+01 0.133840E+01 0.193421E+01
12.449210 0.134017E+01 0.134017E+01 0.192926E+01
12.476420 0.134887E+01 0.134887E+01 0.192746E+01
12.503640 0.136538E+01 0.136538E+01 0.192958E+01
12.530850 0.139087E+01 0.139087E+01 0.193629E+01
12.558060 0.142692E+01 0.142692E+01 0.194825E+01
12.585270 0.147534E+01 0.147534E+01 0.196612E+01
12.612480 0.153775E+01 0.153775E+01 0.199067E+01
12.639690 0.161500E+01 0.161500E+01 0.202246E+01
12.666900 0.170677E+01 0.170677E+01 0.206161E+01
12.694120 0.181202E+01 0.181202E+01 0.210766E+01
12.721330 0.192923E+01 0.192923E+01 0.215957E+01
12.748540 0.205652E+01 0.205652E+01 0.221586E+01
12.775750 0.219089E+01 0.219089E+01 0.227466E+01
12.802960 0.232785E+01 0.232785E+01 0.233395E+01
12.830170 0.246150E+01 0.246150E+01 0.239184E+01
12.857380 0.258588E+01 0.258588E+01 0.244655E+01
12.884600 0.269720E+01 0.269720E+01 0.249660E+01
12.911810 0.279526E+01 0.279526E+01 0.254089E+01
12.939020 0.288332E+01 0.288332E+01 0.257912E+01
12.966230 0.296591E+01 0.296591E+01 0.261219E+01
12.993440 0.304723E+01 0.304723E+01 0.264241E+01
13.020650 0.313037E+01 0.313037E+01 0.267293E+01
13.047860 0.321629E+01 0.321629E+01 0.270655E+01
13.075080 0.330307E+01 0.330307E+01 0.274506E+01
13.102290 0.338670E+01 0.338670E+01 0.278942E+01
13.129500 0.346342E+01 0.346342E+01 0.284079E+01
13.156710 0.353128E+01 0.353128E+01 0.290013E+01
13.183920 0.359043E+01 0.359043E+01 0.296737E+01
13.211130 0.364208E+01 0.364208E+01 0.304077E+01
13.238340 0.368685E+01 0.368685E+01 0.311680E+01
13.265560 0.372403E+01 0.372403E+01 0.319073E+01
13.292770 0.375249E+01 0.375249E+01 0.325838E+01
13.319980 0.377241E+01 0.377241E+01 0.331809E+01
13.347190 0.378589E+01 0.378589E+01 0.337043E+01
13.374400 0.379638E+01 0.379638E+01 0.341710E+01
13.401610 0.380744E+01 0.380744E+01 0.346012E+01
13.428820 0.382127E+01 0.382127E+01 0.350086E+01
13.456030 0.383774E+01 0.383774E+01 0.353901E+01
13.483250 0.385454E+01 0.385454E+01 0.357272E+01
13.510460 0.386797E+01 0.386797E+01 0.359967E+01
13.537670 0.387376E+01 0.387376E+01 0.361794E+01
13.564880 0.386827E+01 0.386827E+01 0.362556E+01
13.592090 0.385072E+01 0.385072E+01 0.362106E+01
13.619300 0.382460E+01 0.382460E+01 0.360512E+01
13.646510 0.379527E+01 0.379527E+01 0.358038E+01
13.673730 0.376684E+01 0.376684E+01 0.355022E+01
13.700940 0.374178E+01 0.374178E+01 0.351833E+01
13.728150 0.372184E+01 0.372184E+01 0.348899E+01
13.755360 0.370813E+01 0.370813E+01 0.346654E+01
13.782570 0.370069E+01 0.370069E+01 0.345414E+01
13.809780 0.369866E+01 0.369866E+01 0.345227E+01
13.836990 0.370002E+01 0.370002E+01 0.345675E+01
13.864210 0.370158E+01 0.370158E+01 0.345904E+01
13.891420 0.370039E+01 0.370039E+01 0.345174E+01
13.918630 0.369547E+01 0.369547E+01 0.343439E+01
13.945840 0.368782E+01 0.368782E+01 0.341192E+01
13.973050 0.367883E+01 0.367883E+01 0.338876E+01
14.000260 0.366856E+01 0.366856E+01 0.336487E+01
14.027470 0.365552E+01 0.365552E+01 0.333589E+01
14.054690 0.363805E+01 0.363805E+01 0.329730E+01
14.081900 0.361589E+01 0.361589E+01 0.324862E+01
14.109110 0.359037E+01 0.359037E+01 0.319288E+01
14.136320 0.356370E+01 0.356370E+01 0.313432E+01
14.163530 0.353808E+01 0.353808E+01 0.307679E+01
14.190740 0.351512E+01 0.351512E+01 0.302309E+01
14.217950 0.349576E+01 0.349576E+01 0.297504E+01
14.245170 0.348070E+01 0.348070E+01 0.293396E+01
14.272380 0.347057E+01 0.347057E+01 0.290118E+01
14.299590 0.346583E+01 0.346583E+01 0.287774E+01
14.326800 0.346654E+01 0.346654E+01 0.286408E+01
14.354010 0.347211E+01 0.347211E+01 0.285973E+01
14.381220 0.348136E+01 0.348136E+01 0.286326E+01
14.408430 0.349317E+01 0.349317E+01 0.287255E+01
14.435650 0.350677E+01 0.350677E+01 0.288539E+01
14.462860 0.352157E+01 0.352157E+01 0.290015E+01
14.490070 0.353669E+01 0.353669E+01 0.291614E+01
14.517280 0.355069E+01 0.355069E+01 0.293353E+01
14.544490 0.356192E+01 0.356192E+01 0.295316E+01
14.571700 0.357005E+01 0.357005E+01 0.297642E+01
14.598910 0.357754E+01 0.357754E+01 0.300520E+01
14.626120 0.358856E+01 0.358856E+01 0.304142E+01
14.653340 0.360641E+01 0.360641E+01 0.308652E+01
14.680550 0.363196E+01 0.363196E+01 0.314110E+01
14.707760 0.366380E+01 0.366380E+01 0.320518E+01
14.734970 0.369933E+01 0.369933E+01 0.327822E+01
14.762180 0.373580E+01 0.373580E+01 0.335903E+01
14.789390 0.377106E+01 0.377106E+01 0.344571E+01
14.816600 0.380446E+01 0.380446E+01 0.353600E+01
14.843820 0.383740E+01 0.383740E+01 0.362768E+01
14.871030 0.387279E+01 0.387279E+01 0.371859E+01
14.898240 0.391371E+01 0.391371E+01 0.380704E+01
14.925450 0.396117E+01 0.396117E+01 0.389183E+01
14.952660 0.401125E+01 0.401125E+01 0.397204E+01
14.979870 0.405272E+01 0.405272E+01 0.404714E+01
15.007080 0.406916E+01 0.406916E+01 0.411699E+01
15.034300 0.404755E+01 0.404755E+01 0.418154E+01
15.061510 0.398586E+01 0.398586E+01 0.424040E+01
15.088720 0.389093E+01 0.389093E+01 0.429384E+01
15.115930 0.377331E+01 0.377331E+01 0.434376E+01
15.143140 0.364512E+01 0.364512E+01 0.439391E+01
15.170350 0.351763E+01 0.351763E+01 0.444842E+01
15.197560 0.339837E+01 0.339837E+01 0.451003E+01
15.224780 0.329017E+01 0.329017E+01 0.457936E+01
15.251990 0.319256E+01 0.319256E+01 0.465591E+01
15.279200 0.310382E+01 0.310382E+01 0.474006E+01
15.306410 0.302280E+01 0.302280E+01 0.483305E+01
15.333620 0.294913E+01 0.294913E+01 0.493591E+01
15.360830 0.288305E+01 0.288305E+01 0.504882E+01
15.388040 0.282532E+01 0.282532E+01 0.517107E+01
15.415260 0.277676E+01 0.277676E+01 0.530113E+01
15.442470 0.273756E+01 0.273756E+01 0.543680E+01
15.469680 0.270696E+01 0.270696E+01 0.557559E+01
15.496890 0.268357E+01 0.268357E+01 0.571367E+01
15.524100 0.266696E+01 0.266696E+01 0.584627E+01
15.551310 0.265892E+01 0.265892E+01 0.597007E+01
15.578520 0.266162E+01 0.266162E+01 0.608443E+01
15.605740 0.267587E+01 0.267587E+01 0.618993E+01
15.632950 0.270124E+01 0.270124E+01 0.628578E+01
15.660160 0.273668E+01 0.273668E+01 0.636915E+01
15.687370 0.278062E+01 0.278062E+01 0.643636E+01
15.714580 0.283043E+01 0.283043E+01 0.648539E+01
15.741790 0.288217E+01 0.288217E+01 0.651705E+01
15.769000 0.293175E+01 0.293175E+01 0.653374E+01
15.796210 0.297657E+01 0.297657E+01 0.653797E+01
15.823430 0.301574E+01 0.301574E+01 0.653079E+01
15.850640 0.304912E+01 0.304912E+01 0.651034E+01
15.877850 0.307682E+01 0.307682E+01 0.647336E+01
15.905060 0.309929E+01 0.309929E+01 0.641904E+01
15.932270 0.311757E+01 0.311757E+01 0.635042E+01
15.959480 0.313325E+01 0.313325E+01 0.627279E+01
15.986690 0.314844E+01 0.314844E+01 0.619268E+01
16.013910 0.316547E+01 0.316547E+01 0.611669E+01
16.041120 0.318571E+01 0.318571E+01 0.604866E+01
16.068330 0.320901E+01 0.320901E+01 0.598879E+01
16.095540 0.323468E+01 0.323468E+01 0.593612E+01
16.122750 0.326295E+01 0.326295E+01 0.588996E+01
16.149960 0.329490E+01 0.329490E+01 0.584913E+01
16.177170 0.333184E+01 0.333184E+01 0.581122E+01
16.204390 0.337521E+01 0.337521E+01 0.577365E+01
16.231600 0.342680E+01 0.342680E+01 0.573597E+01
16.258810 0.348854E+01 0.348854E+01 0.570053E+01
16.286020 0.356125E+01 0.356125E+01 0.567040E+01
16.313230 0.364255E+01 0.364255E+01 0.564636E+01
16.340440 0.372462E+01 0.372462E+01 0.562516E+01
16.367650 0.379375E+01 0.379375E+01 0.560019E+01
16.394870 0.383384E+01 0.383384E+01 0.556414E+01
16.422080 0.383422E+01 0.383422E+01 0.551297E+01
16.449290 0.379654E+01 0.379654E+01 0.544971E+01
16.476500 0.373323E+01 0.373323E+01 0.538361E+01
16.503710 0.365994E+01 0.365994E+01 0.532429E+01
16.530920 0.358948E+01 0.358948E+01 0.527714E+01
16.558130 0.353018E+01 0.353018E+01 0.524404E+01
16.585350 0.348688E+01 0.348688E+01 0.522689E+01
16.612560 0.346237E+01 0.346237E+01 0.522875E+01
16.639770 0.345785E+01 0.345785E+01 0.525042E+01
16.666980 0.347232E+01 0.347232E+01 0.528679E+01
16.694190 0.350156E+01 0.350156E+01 0.532681E+01
16.721400 0.353857E+01 0.353857E+01 0.535862E+01
16.748610 0.357652E+01 0.357652E+01 0.537513E+01
16.775830 0.361277E+01 0.361277E+01 0.537378E+01
16.803040 0.364894E+01 0.364894E+01 0.535334E+01
16.830250 0.368704E+01 0.368704E+01 0.531399E+01
16.857460 0.372674E+01 0.372674E+01 0.526022E+01
16.884670 0.376620E+01 0.376620E+01 0.519989E+01
16.911880 0.380372E+01 0.380372E+01 0.514067E+01
16.939090 0.383777E+01 0.383777E+01 0.508834E+01
16.966300 0.386592E+01 0.386592E+01 0.504613E+01
16.993520 0.388531E+01 0.388531E+01 0.501459E+01
17.020730 0.389592E+01 0.389592E+01 0.499324E+01
17.047940 0.390231E+01 0.390231E+01 0.498198E+01
17.075150 0.391058E+01 0.391058E+01 0.498094E+01
17.102360 0.392356E+01 0.392356E+01 0.498972E+01
17.129570 0.393905E+01 0.393905E+01 0.500630E+01
17.156780 0.395197E+01 0.395197E+01 0.502597E+01
17.184000 0.395725E+01 0.395725E+01 0.504126E+01
17.211210 0.395208E+01 0.395208E+01 0.504428E+01
17.238420 0.393726E+01 0.393726E+01 0.503048E+01
17.265630 0.391629E+01 0.391629E+01 0.500030E+01
17.292840 0.389248E+01 0.389248E+01 0.495712E+01
17.320050 0.386769E+01 0.386769E+01 0.490417E+01
17.347260 0.384300E+01 0.384300E+01 0.484295E+01
17.374480 0.381924E+01 0.381924E+01 0.477399E+01
17.401690 0.379727E+01 0.379727E+01 0.469920E+01
17.428900 0.377778E+01 0.377778E+01 0.462263E+01
17.456110 0.376034E+01 0.376034E+01 0.454788E+01
17.483320 0.374277E+01 0.374277E+01 0.447494E+01
17.510530 0.372257E+01 0.372257E+01 0.440132E+01
17.537740 0.369860E+01 0.369860E+01 0.432617E+01
17.564960 0.367076E+01 0.367076E+01 0.425146E+01
17.592170 0.363932E+01 0.363932E+01 0.417924E+01
17.619380 0.360492E+01 0.360492E+01 0.410903E+01
17.646590 0.356836E+01 0.356836E+01 0.403920E+01
17.673800 0.352996E+01 0.352996E+01 0.397114E+01
17.701010 0.348971E+01 0.348971E+01 0.391027E+01
17.728220 0.344814E+01 0.344814E+01 0.386248E+01
17.755440 0.340694E+01 0.340694E+01 0.383177E+01
17.782650 0.336855E+01 0.336855E+01 0.382047E+01
17.809860 0.333466E+01 0.333466E+01 0.383023E+01
17.837070 0.330491E+01 0.330491E+01 0.386220E+01
17.864280 0.327680E+01 0.327680E+01 0.391527E+01
17.891490 0.324757E+01 0.324757E+01 0.398370E+01
17.918700 0.321672E+01 0.321672E+01 0.405604E+01
17.945920 0.318629E+01 0.318629E+01 0.411698E+01
17.973130 0.315866E+01 0.315866E+01 0.415323E+01
18.000340 0.313457E+01 0.313457E+01 0.415952E+01
18.027550 0.311292E+01 0.311292E+01 0.413793E+01
18.054760 0.309190E+01 0.309190E+01 0.409291E+01
18.081970 0.307080E+01 0.307080E+01 0.402899E+01
18.109180 0.305107E+01 0.305107E+01 0.395179E+01
18.136390 0.303485E+01 0.303485E+01 0.386711E+01
18.163610 0.302335E+01 0.302335E+01 0.377864E+01
18.190820 0.301676E+01 0.301676E+01 0.368858E+01
18.218030 0.301476E+01 0.301476E+01 0.359918E+01
18.245240 0.301632E+01 0.301632E+01 0.351305E+01
18.272450 0.301920E+01 0.301920E+01 0.343202E+01
18.299660 0.302090E+01 0.302090E+01 0.335697E+01
18.326870 0.302040E+01 0.302040E+01 0.328868E+01
18.354090 0.301857E+01 0.301857E+01 0.322785E+01
18.381300 0.301715E+01 0.301715E+01 0.317457E+01
18.408510 0.301776E+01 0.301776E+01 0.312790E+01
18.435720 0.302186E+01 0.302186E+01 0.308622E+01
18.462930 0.303069E+01 0.303069E+01 0.304738E+01
18.490140 0.304477E+01 0.304477E+01 0.300909E+01
18.517350 0.306379E+01 0.306379E+01 0.296946E+01
18.544570 0.308681E+01 0.308681E+01 0.292767E+01
18.571780 0.311173E+01 0.311173E+01 0.288424E+01
18.598990 0.313489E+01 0.313489E+01 0.284034E+01
18.626200 0.315153E+01 0.315153E+01 0.279729E+01
18.653410 0.315807E+01 0.315807E+01 0.275593E+01
18.680620 0.315407E+01 0.315407E+01 0.271619E+01
18.707830 0.314185E+01 0.314185E+01 0.267733E+01
18.735050 0.312434E+01 0.312434E+01 0.263864E+01
18.762260 0.310381E+01 0.310381E+01 0.259992E+01
18.789470 0.308189E+01 0.308189E+01 0.256082E+01
18.816680 0.305984E+01 0.305984E+01 0.252051E+01
18.843890 0.303835E+01 0.303835E+01 0.247880E+01
18.871100 0.301752E+01 0.301752E+01 0.243725E+01
18.898310 0.299717E+01 0.299717E+01 0.239788E+01
18.925530 0.297722E+01 0.297722E+01 0.236222E+01
18.952740 0.295806E+01 0.295806E+01 0.233143E+01
18.979950 0.294049E+01 0.294049E+01 0.230609E+01
19.007160 0.292523E+01 0.292523E+01 0.228593E+01
19.034370 0.291249E+01 0.291249E+01 0.226982E+01
19.061580 0.290210E+01 0.290210E+01 0.225625E+01
19.088790 0.289460E+01 0.289460E+01 0.224416E+01
19.116010 0.289157E+01 0.289157E+01 0.223339E+01
19.143220 0.289464E+01 0.289464E+01 0.222425E+01
19.170430 0.290470E+01 0.290470E+01 0.221712E+01
19.197640 0.292215E+01 0.292215E+01 0.221258E+01
19.224850 0.294707E+01 0.294707E+01 0.221145E+01
19.252060 0.297865E+01 0.297865E+01 0.221455E+01
19.279270 0.301425E+01 0.301425E+01 0.222236E+01
19.306480 0.304917E+01 0.304917E+01 0.223472E+01
19.333700 0.307791E+01 0.307791E+01 0.225061E+01
19.360910 0.309625E+01 0.309625E+01 0.226805E+01
19.388120 0.310280E+01 0.310280E+01 0.228450E+01
19.415330 0.309918E+01 0.309918E+01 0.229771E+01
19.442540 0.308908E+01 0.308908E+01 0.230644E+01
19.469750 0.307687E+01 0.307687E+01 0.231065E+01
19.496960 0.306628E+01 0.306628E+01 0.231146E+01
19.524180 0.305967E+01 0.305967E+01 0.231040E+01
19.551390 0.305768E+01 0.305768E+01 0.230860E+01
19.578600 0.305938E+01 0.305938E+01 0.230626E+01
19.605810 0.306224E+01 0.306224E+01 0.230270E+01
19.633020 0.306294E+01 0.306294E+01 0.229664E+01
19.660230 0.305869E+01 0.305869E+01 0.228676E+01
19.687440 0.304784E+01 0.304784E+01 0.227193E+01
19.714660 0.303006E+01 0.303006E+01 0.225146E+01
19.741870 0.300681E+01 0.300681E+01 0.222557E+01
19.769080 0.298079E+01 0.298079E+01 0.219538E+01
19.796290 0.295466E+01 0.295466E+01 0.216267E+01
19.823500 0.292995E+01 0.292995E+01 0.212925E+01
19.850710 0.290715E+01 0.290715E+01 0.209655E+01
19.877920 0.288624E+01 0.288624E+01 0.206541E+01
19.905140 0.286722E+01 0.286722E+01 0.203614E+01
19.932350 0.284970E+01 0.284970E+01 0.200847E+01
19.959560 0.283233E+01 0.283233E+01 0.198127E+01
19.986770 0.281286E+01 0.281286E+01 0.195295E+01
20.013980 0.278877E+01 0.278877E+01 0.192205E+01
20.041190 0.275803E+01 0.275803E+01 0.188787E+01
20.068400 0.272020E+01 0.272020E+01 0.185059E+01
20.095620 0.267693E+01 0.267693E+01 0.181129E+01
20.122830 0.263125E+01 0.263125E+01 0.177194E+01
20.150040 0.258614E+01 0.258614E+01 0.173513E+01
20.177250 0.254417E+01 0.254417E+01 0.170345E+01
20.204460 0.250754E+01 0.250754E+01 0.167855E+01
20.231670 0.247797E+01 0.247797E+01 0.166102E+01
20.258880 0.245639E+01 0.245639E+01 0.165070E+01
20.286100 0.244267E+01 0.244267E+01 0.164694E+01
20.313310 0.243610E+01 0.243610E+01 0.164886E+01
20.340520 0.243565E+01 0.243565E+01 0.165564E+01
20.367730 0.243975E+01 0.243975E+01 0.166654E+01
20.394940 0.244622E+01 0.244622E+01 0.168094E+01
20.422150 0.245310E+01 0.245310E+01 0.169868E+01
20.449360 0.245959E+01 0.245959E+01 0.172006E+01
20.476570 0.246585E+01 0.246585E+01 0.174506E+01
20.503790 0.247233E+01 0.247233E+01 0.177279E+01
20.531000 0.247956E+01 0.247956E+01 0.180175E+01
20.558210 0.248837E+01 0.248837E+01 0.183061E+01
20.585420 0.249977E+01 0.249977E+01 0.185841E+01
20.612630 0.251466E+01 0.251466E+01 0.188433E+01
20.639840 0.253340E+01 0.253340E+01 0.190754E+01
20.667050 0.255515E+01 0.255515E+01 0.192709E+01
20.694270 0.257772E+01 0.257772E+01 0.194190E+01
20.721480 0.259824E+01 0.259824E+01 0.195155E+01
20.748690 0.261410E+01 0.261410E+01 0.195673E+01
20.775900 0.262341E+01 0.262341E+01 0.195855E+01
20.803110 0.262546E+01 0.262546E+01 0.195773E+01
20.830320 0.262049E+01 0.262049E+01 0.195444E+01
20.857530 0.260891E+01 0.260891E+01 0.194842E+01
20.884750 0.259064E+01 0.259064E+01 0.193893E+01
20.911960 0.256532E+01 0.256532E+01 0.192489E+01
20.939170 0.253311E+01 0.253311E+01 0.190563E+01
20.966380 0.249556E+01 0.249556E+01 0.188186E+01
20.993590 0.245541E+01 0.245541E+01 0.185554E+01
21.020800 0.241555E+01 0.241555E+01 0.182850E+01
21.048010 0.237772E+01 0.237772E+01 0.180155E+01
21.075230 0.234195E+01 0.234195E+01 0.177444E+01
21.102440 0.230710E+01 0.230710E+01 0.174659E+01
21.129650 0.227182E+01 0.227182E+01 0.171756E+01
21.156860 0.223538E+01 0.223538E+01 0.168718E+01
21.184070 0.219771E+01 0.219771E+01 0.165554E+01
21.211280 0.215913E+01 0.215913E+01 0.162311E+01
21.238490 0.212030E+01 0.212030E+01 0.159070E+01
21.265710 0.208227E+01 0.208227E+01 0.155936E+01
21.292920 0.204611E+01 0.204611E+01 0.153051E+01
21.320130 0.201223E+01 0.201223E+01 0.150557E+01
21.347340 0.198043E+01 0.198043E+01 0.148516E+01
21.374550 0.195026E+01 0.195026E+01 0.146830E+01
21.401760 0.192129E+01 0.192129E+01 0.145304E+01
21.428970 0.189356E+01 0.189356E+01 0.143807E+01
21.456190 0.186759E+01 0.186759E+01 0.142342E+01
21.483400 0.184396E+01 0.184396E+01 0.140980E+01
21.510610 0.182310E+01 0.182310E+01 0.139767E+01
21.537820 0.180523E+01 0.180523E+01 0.138723E+01
21.565030 0.179003E+01 0.179003E+01 0.137872E+01
21.592240 0.177653E+01 0.177653E+01 0.137265E+01
21.619450 0.176336E+01 0.176336E+01 0.136972E+01
21.646660 0.174944E+01 0.174944E+01 0.137088E+01
21.673880 0.173437E+01 0.173437E+01 0.137708E+01
21.701090 0.171820E+01 0.171820E+01 0.138853E+01
21.728300 0.170093E+01 0.170093E+01 0.140432E+01
21.755510 0.168254E+01 0.168254E+01 0.142238E+01
21.782720 0.166328E+01 0.166328E+01 0.143992E+01
21.809930 0.164377E+01 0.164377E+01 0.145401E+01
21.837140 0.162485E+01 0.162485E+01 0.146266E+01
21.864360 0.160720E+01 0.160720E+01 0.146511E+01
21.891570 0.159111E+01 0.159111E+01 0.146112E+01
21.918780 0.157653E+01 0.157653E+01 0.145045E+01
21.945990 0.156343E+01 0.156343E+01 0.143316E+01
21.973200 0.155193E+01 0.155193E+01 0.141010E+01
22.000410 0.154235E+01 0.154235E+01 0.138329E+01
22.027620 0.153503E+01 0.153503E+01 0.135555E+01
22.054840 0.153052E+01 0.153052E+01 0.132974E+01
22.082050 0.152953E+01 0.152953E+01 0.130784E+01
22.109260 0.153225E+01 0.153225E+01 0.129032E+01
22.136470 0.153795E+01 0.153795E+01 0.127631E+01
22.163680 0.154498E+01 0.154498E+01 0.126444E+01
22.190890 0.155166E+01 0.155166E+01 0.125367E+01
22.218100 0.155726E+01 0.155726E+01 0.124400E+01
22.245320 0.156189E+01 0.156189E+01 0.123628E+01
22.272530 0.156573E+01 0.156573E+01 0.123143E+01
22.299740 0.156874E+01 0.156874E+01 0.122999E+01
22.326950 0.157081E+01 0.157081E+01 0.123194E+01
22.354160 0.157209E+01 0.157209E+01 0.123685E+01
22.381370 0.157313E+01 0.157313E+01 0.124417E+01
22.408580 0.157492E+01 0.157492E+01 0.125334E+01
22.435800 0.157833E+01 0.157833E+01 0.126377E+01
22.463010 0.158338E+01 0.158338E+01 0.127447E+01
22.490220 0.158913E+01 0.158913E+01 0.128401E+01
22.517430 0.159399E+01 0.159399E+01 0.129070E+01
22.544640 0.159646E+01 0.159646E+01 0.129316E+01
22.571850 0.159614E+01 0.159614E+01 0.129082E+01
22.599060 0.159435E+01 0.159435E+01 0.128427E+01
22.626280 0.159378E+01 0.159378E+01 0.127511E+01
22.653490 0.159720E+01 0.159720E+01 0.126536E+01
22.680700 0.160603E+01 0.160603E+01 0.125665E+01
22.707910 0.161981E+01 0.161981E+01 0.125019E+01
22.735120 0.163660E+01 0.163660E+01 0.124680E+01
22.762330 0.165403E+01 0.165403E+01 0.124680E+01
22.789540 0.166991E+01 0.166991E+01 0.124972E+01
22.816750 0.168237E+01 0.168237E+01 0.125440E+01
22.843970 0.168992E+01 0.168992E+01 0.125947E+01
22.871180 0.169151E+01 0.169151E+01 0.126389E+01
22.898390 0.168642E+01 0.168642E+01 0.126716E+01
22.925600 0.167421E+01 0.167421E+01 0.126919E+01
22.952810 0.165496E+01 0.165496E+01 0.127013E+01
22.980020 0.162957E+01 0.162957E+01 0.127022E+01
23.007230 0.160009E+01 0.160009E+01 0.126998E+01
23.034450 0.156952E+01 0.156952E+01 0.127004E+01
23.061660 0.154059E+01 0.154059E+01 0.127076E+01
23.088870 0.151441E+01 0.151441E+01 0.127195E+01
23.116080 0.149059E+01 0.149059E+01 0.127305E+01
23.143290 0.146838E+01 0.146838E+01 0.127363E+01
23.170500 0.144747E+01 0.144747E+01 0.127364E+01
23.197710 0.142804E+01 0.142804E+01 0.127331E+01
23.224930 0.141038E+01 0.141038E+01 0.127283E+01
23.252140 0.139447E+01 0.139447E+01 0.127215E+01
23.279350 0.138003E+01 0.138003E+01 0.127119E+01
23.306560 0.136671E+01 0.136671E+01 0.126997E+01
23.333770 0.135428E+01 0.135428E+01 0.126865E+01
23.360980 0.134266E+01 0.134266E+01 0.126736E+01
23.388190 0.133200E+01 0.133200E+01 0.126616E+01
23.415410 0.132269E+01 0.132269E+01 0.126512E+01
23.442620 0.131511E+01 0.131511E+01 0.126420E+01
23.469830 0.130914E+01 0.130914E+01 0.126315E+01
23.497040 0.130407E+01 0.130407E+01 0.126154E+01
23.524250 0.129918E+01 0.129918E+01 0.125908E+01
23.551460 0.129430E+01 0.129430E+01 0.125596E+01
23.578670 0.128994E+01 0.128994E+01 0.125290E+01
23.605890 0.128707E+01 0.128707E+01 0.125079E+01
23.633100 0.128653E+01 0.128653E+01 0.125016E+01
23.660310 0.128837E+01 0.128837E+01 0.125101E+01
23.687520 0.129167E+01 0.129167E+01 0.125289E+01
23.714730 0.129490E+01 0.129490E+01 0.125499E+01
23.741940 0.129643E+01 0.129643E+01 0.125642E+01
23.769150 0.129516E+01 0.129516E+01 0.125666E+01
23.796370 0.129089E+01 0.129089E+01 0.125565E+01
23.823580 0.128428E+01 0.128428E+01 0.125361E+01
23.850790 0.127627E+01 0.127627E+01 0.125073E+01
23.878000 0.126772E+01 0.126772E+01 0.124725E+01
23.905210 0.125934E+01 0.125934E+01 0.124354E+01
23.932420 0.125167E+01 0.125167E+01 0.123991E+01
23.959630 0.124510E+01 0.124510E+01 0.123653E+01
23.986840 0.123983E+01 0.123983E+01 0.123374E+01
24.014060 0.123604E+01 0.123604E+01 0.123225E+01
24.041270 0.123390E+01 0.123390E+01 0.123281E+01
24.068480 0.123316E+01 0.123316E+01 0.123580E+01
24.095690 0.123283E+01 0.123283E+01 0.124084E+01
24.122900 0.123157E+01 0.123157E+01 0.124617E+01
24.150110 0.122884E+01 0.122884E+01 0.124878E+01
24.177320 0.122525E+01 0.122525E+01 0.124632E+01
24.204540 0.122181E+01 0.122181E+01 0.123902E+01
24.231750 0.121915E+01 0.121915E+01 0.122943E+01
24.258960 0.121736E+01 0.121736E+01 0.122002E+01
24.286170 0.121618E+01 0.121618E+01 0.121176E+01
24.313380 0.121545E+01 0.121545E+01 0.120452E+01
24.340590 0.121540E+01 0.121540E+01 0.119816E+01
24.367800 0.121655E+01 0.121655E+01 0.119280E+01
24.395020 0.121933E+01 0.121933E+01 0.118862E+01
24.422230 0.122411E+01 0.122411E+01 0.118565E+01
24.449440 0.123131E+01 0.123131E+01 0.118345E+01
24.476650 0.124146E+01 0.124146E+01 0.118090E+01
24.503860 0.125484E+01 0.125484E+01 0.117638E+01
24.531070 0.127125E+01 0.127125E+01 0.116832E+01
24.558280 0.128980E+01 0.128980E+01 0.115601E+01
24.585500 0.130916E+01 0.130916E+01 0.113980E+01
24.612710 0.132795E+01 0.132795E+01 0.112047E+01
24.639920 0.134519E+01 0.134519E+01 0.109893E+01
24.667130 0.136024E+01 0.136024E+01 0.107624E+01
24.694340 0.137274E+01 0.137274E+01 0.105342E+01
24.721550 0.138235E+01 0.138235E+01 0.103114E+01
24.748760 0.138866E+01 0.138866E+01 0.100965E+01
24.775980 0.139130E+01 0.139130E+01 0.988933E+00
24.803190 0.139014E+01 0.139014E+01 0.968987E+00
24.830400 0.138539E+01 0.138539E+01 0.949970E+00
24.857610 0.137761E+01 0.137761E+01 0.932084E+00
24.884820 0.136764E+01 0.136764E+01 0.915438E+00
24.912030 0.135634E+01 0.135634E+01 0.900009E+00
24.939240 0.134437E+01 0.134437E+01 0.885594E+00
24.966460 0.133223E+01 0.133223E+01 0.871832E+00
24.993670 0.132028E+01 0.132028E+01 0.858377E+00
25.020880 0.130874E+01 0.130874E+01 0.845059E+00
25.048090 0.129760E+01 0.129760E+01 0.831985E+00
25.075300 0.128639E+01 0.128639E+01 0.819434E+00
25.102510 0.127400E+01 0.127400E+01 0.807649E+00
25.129720 0.125957E+01 0.125957E+01 0.796713E+00
25.156930 0.124321E+01 0.124321E+01 0.786596E+00
25.184150 0.122538E+01 0.122538E+01 0.777235E+00
25.211360 0.120614E+01 0.120614E+01 0.768569E+00
25.238570 0.118539E+01 0.118539E+01 0.760526E+00
25.265780 0.116336E+01 0.116336E+01 0.753086E+00
25.292990 0.114058E+01 0.114058E+01 0.746328E+00
25.320200 0.111761E+01 0.111761E+01 0.740400E+00
25.347410 0.109480E+01 0.109480E+01 0.735448E+00
25.374630 0.107231E+01 0.107231E+01 0.731573E+00
25.401840 0.105034E+01 0.105034E+01 0.728796E+00
25.429050 0.102910E+01 0.102910E+01 0.727003E+00
25.456260 0.100882E+01 0.100882E+01 0.725899E+00
25.483470 0.989681E+00 0.989681E+00 0.725001E+00
25.510680 0.971771E+00 0.971771E+00 0.723718E+00
25.537890 0.955113E+00 0.955113E+00 0.721541E+00
25.565110 0.939752E+00 0.939752E+00 0.718223E+00
25.592320 0.925848E+00 0.925848E+00 0.713864E+00
25.619530 0.913649E+00 0.913649E+00 0.708821E+00
25.646740 0.903418E+00 0.903418E+00 0.703476E+00
25.673950 0.895266E+00 0.895266E+00 0.698031E+00
25.701160 0.889100E+00 0.889100E+00 0.692530E+00
25.728370 0.884749E+00 0.884749E+00 0.686944E+00
25.755590 0.882067E+00 0.882067E+00 0.681212E+00
25.782800 0.880924E+00 0.880924E+00 0.675328E+00
25.810010 0.881169E+00 0.881169E+00 0.669542E+00
25.837220 0.882664E+00 0.882664E+00 0.664397E+00
25.864430 0.885329E+00 0.885329E+00 0.660347E+00
25.891640 0.889109E+00 0.889109E+00 0.657452E+00
25.918850 0.893826E+00 0.893826E+00 0.655502E+00
25.946070 0.899038E+00 0.899038E+00 0.654220E+00
25.973280 0.904020E+00 0.904020E+00 0.653297E+00
