#                                                                                
# Lorentzian broadening with gamma= 0.100000  [eV]
# Im(epsilon) shifted by   0.0000   [eV]
# No intraband contributions added
#
# Energy Im_eps_xx Im_eps_yy Im_eps_zz
0.013610 0.522488E-02 0.522488E-02 0.576177E-02
0.040820 0.524339E-02 0.524339E-02 0.578198E-02
0.068030 0.526200E-02 0.526200E-02 0.580231E-02
0.095240 0.528072E-02 0.528072E-02 0.582275E-02
0.122450 0.529955E-02 0.529955E-02 0.584330E-02
0.149660 0.531849E-02 0.531849E-02 0.586397E-02
0.176870 0.533754E-02 0.533754E-02 0.588475E-02
0.204090 0.535670E-02 0.535670E-02 0.590566E-02
0.231300 0.537597E-02 0.537597E-02 0.592667E-02
0.258510 0.539536E-02 0.539536E-02 0.594781E-02
0.285720 0.541485E-02 0.541485E-02 0.596907E-02
0.312930 0.543446E-02 0.543446E-02 0.599044E-02
0.340140 0.545419E-02 0.545419E-02 0.601194E-02
0.367350 0.547403E-02 0.547403E-02 0.603356E-02
0.394570 0.549400E-02 0.549400E-02 0.605531E-02
0.421780 0.551408E-02 0.551408E-02 0.607717E-02
0.448990 0.553427E-02 0.553427E-02 0.609916E-02
0.476200 0.555459E-02 0.555459E-02 0.612128E-02
0.503410 0.557503E-02 0.557503E-02 0.614353E-02
0.530620 0.559559E-02 0.559559E-02 0.616590E-02
0.557830 0.561628E-02 0.561628E-02 0.618840E-02
0.585040 0.563709E-02 0.563709E-02 0.621104E-02
0.612260 0.565803E-02 0.565803E-02 0.623381E-02
0.639470 0.567910E-02 0.567910E-02 0.625670E-02
0.666680 0.570029E-02 0.570029E-02 0.627973E-02
0.693890 0.572161E-02 0.572161E-02 0.630290E-02
0.721100 0.574306E-02 0.574306E-02 0.632620E-02
0.748310 0.576464E-02 0.576464E-02 0.634964E-02
0.775520 0.578635E-02 0.578635E-02 0.637321E-02
0.802740 0.580821E-02 0.580821E-02 0.639693E-02
0.829950 0.583019E-02 0.583019E-02 0.642079E-02
0.857160 0.585231E-02 0.585231E-02 0.644478E-02
0.884370 0.587457E-02 0.587457E-02 0.646892E-02
0.911580 0.589696E-02 0.589696E-02 0.649320E-02
0.938790 0.591949E-02 0.591949E-02 0.651763E-02
0.966000 0.594217E-02 0.594217E-02 0.654220E-02
0.993220 0.596500E-02 0.596500E-02 0.656693E-02
1.020430 0.598796E-02 0.598796E-02 0.659180E-02
1.047640 0.601106E-02 0.601106E-02 0.661682E-02
1.074850 0.603431E-02 0.603431E-02 0.664199E-02
1.102060 0.605771E-02 0.605771E-02 0.666731E-02
1.129270 0.608126E-02 0.608126E-02 0.669279E-02
1.156480 0.610496E-02 0.610496E-02 0.671842E-02
1.183700 0.612882E-02 0.612882E-02 0.674422E-02
1.210910 0.615283E-02 0.615283E-02 0.677016E-02
1.238120 0.617698E-02 0.617698E-02 0.679627E-02
1.265330 0.620130E-02 0.620130E-02 0.682253E-02
1.292540 0.622577E-02 0.622577E-02 0.684896E-02
1.319750 0.625040E-02 0.625040E-02 0.687555E-02
1.346960 0.627519E-02 0.627519E-02 0.690230E-02
1.374180 0.630015E-02 0.630015E-02 0.692923E-02
1.401390 0.632527E-02 0.632527E-02 0.695632E-02
1.428600 0.635055E-02 0.635055E-02 0.698358E-02
1.455810 0.637600E-02 0.637600E-02 0.701100E-02
1.483020 0.640162E-02 0.640162E-02 0.703860E-02
1.510230 0.642740E-02 0.642740E-02 0.706638E-02
1.537440 0.645336E-02 0.645336E-02 0.709432E-02
1.564660 0.647950E-02 0.647950E-02 0.712246E-02
1.591870 0.650581E-02 0.650581E-02 0.715076E-02
1.619080 0.653229E-02 0.653229E-02 0.717924E-02
1.646290 0.655895E-02 0.655895E-02 0.720791E-02
1.673500 0.658579E-02 0.658579E-02 0.723675E-02
1.700710 0.661281E-02 0.661281E-02 0.726578E-02
1.727920 0.664001E-02 0.664001E-02 0.729500E-02
1.755130 0.666741E-02 0.666741E-02 0.732440E-02
1.782350 0.669499E-02 0.669499E-02 0.735401E-02
1.809560 0.672276E-02 0.672276E-02 0.738380E-02
1.836770 0.675072E-02 0.675072E-02 0.741378E-02
1.863980 0.677887E-02 0.677887E-02 0.744395E-02
1.891190 0.680722E-02 0.680722E-02 0.747432E-02
1.918400 0.683576E-02 0.683576E-02 0.750489E-02
1.945610 0.686450E-02 0.686450E-02 0.753566E-02
1.972830 0.689345E-02 0.689345E-02 0.756664E-02
2.000040 0.692260E-02 0.692260E-02 0.759782E-02
2.027250 0.695195E-02 0.695195E-02 0.762920E-02
2.054460 0.698151E-02 0.698151E-02 0.766079E-02
2.081670 0.701127E-02 0.701127E-02 0.769259E-02
2.108880 0.704125E-02 0.704125E-02 0.772460E-02
2.136090 0.707144E-02 0.707144E-02 0.775683E-02
2.163310 0.710186E-02 0.710186E-02 0.778928E-02
2.190520 0.713249E-02 0.713249E-02 0.782194E-02
2.217730 0.716333E-02 0.716333E-02 0.785482E-02
2.244940 0.719440E-02 0.719440E-02 0.788792E-02
2.272150 0.722570E-02 0.722570E-02 0.792124E-02
2.299360 0.725722E-02 0.725722E-02 0.795479E-02
2.326570 0.728897E-02 0.728897E-02 0.798857E-02
2.353790 0.732097E-02 0.732097E-02 0.802259E-02
2.381000 0.735319E-02 0.735319E-02 0.805684E-02
2.408210 0.738565E-02 0.738565E-02 0.809132E-02
2.435420 0.741834E-02 0.741834E-02 0.812603E-02
2.462630 0.745128E-02 0.745128E-02 0.816099E-02
2.489840 0.748447E-02 0.748447E-02 0.819618E-02
2.517050 0.751790E-02 0.751790E-02 0.823163E-02
2.544270 0.755160E-02 0.755160E-02 0.826733E-02
2.571480 0.758554E-02 0.758554E-02 0.830327E-02
2.598690 0.761974E-02 0.761974E-02 0.833946E-02
2.625900 0.765419E-02 0.765419E-02 0.837590E-02
2.653110 0.768891E-02 0.768891E-02 0.841260E-02
2.680320 0.772389E-02 0.772389E-02 0.844957E-02
2.707530 0.775914E-02 0.775914E-02 0.848679E-02
2.734750 0.779468E-02 0.779468E-02 0.852429E-02
2.761960 0.783048E-02 0.783048E-02 0.856205E-02
2.789170 0.786655E-02 0.786655E-02 0.860007E-02
2.816380 0.790291E-02 0.790291E-02 0.863837E-02
2.843590 0.793955E-02 0.793955E-02 0.867695E-02
2.870800 0.797648E-02 0.797648E-02 0.871580E-02
2.898010 0.801369E-02 0.801369E-02 0.875493E-02
2.925220 0.805121E-02 0.805121E-02 0.879435E-02
2.952440 0.808903E-02 0.808903E-02 0.883407E-02
2.979650 0.812714E-02 0.812714E-02 0.887407E-02
3.006860 0.816556E-02 0.816556E-02 0.891435E-02
3.034070 0.820429E-02 0.820429E-02 0.895494E-02
3.061280 0.824333E-02 0.824333E-02 0.899582E-02
3.088490 0.828268E-02 0.828268E-02 0.903701E-02
3.115700 0.832235E-02 0.832235E-02 0.907851E-02
3.142920 0.836237E-02 0.836237E-02 0.912032E-02
3.170130 0.840269E-02 0.840269E-02 0.916244E-02
3.197340 0.844335E-02 0.844335E-02 0.920487E-02
3.224550 0.848435E-02 0.848435E-02 0.924762E-02
3.251760 0.852568E-02 0.852568E-02 0.929069E-02
3.278970 0.856736E-02 0.856736E-02 0.933409E-02
3.306180 0.860938E-02 0.860938E-02 0.937781E-02
3.333400 0.865178E-02 0.865178E-02 0.942189E-02
3.360610 0.869452E-02 0.869452E-02 0.946629E-02
3.387820 0.873762E-02 0.873762E-02 0.951102E-02
3.415030 0.878109E-02 0.878109E-02 0.955610E-02
3.442240 0.882493E-02 0.882493E-02 0.960153E-02
3.469450 0.886914E-02 0.886914E-02 0.964731E-02
3.496660 0.891374E-02 0.891374E-02 0.969345E-02
3.523880 0.895874E-02 0.895874E-02 0.973996E-02
3.551090 0.900411E-02 0.900411E-02 0.978683E-02
3.578300 0.904988E-02 0.904988E-02 0.983405E-02
3.605510 0.909606E-02 0.909606E-02 0.988165E-02
3.632720 0.914264E-02 0.914264E-02 0.992963E-02
3.659930 0.918963E-02 0.918963E-02 0.997799E-02
3.687140 0.923704E-02 0.923704E-02 0.100267E-01
3.714360 0.928489E-02 0.928489E-02 0.100759E-01
3.741570 0.933316E-02 0.933316E-02 0.101254E-01
3.768780 0.938186E-02 0.938186E-02 0.101753E-01
3.795990 0.943100E-02 0.943100E-02 0.102256E-01
3.823200 0.948059E-02 0.948059E-02 0.102764E-01
3.850410 0.953063E-02 0.953063E-02 0.103275E-01
3.877620 0.958114E-02 0.958114E-02 0.103791E-01
3.904840 0.963213E-02 0.963213E-02 0.104311E-01
3.932050 0.968358E-02 0.968358E-02 0.104835E-01
3.959260 0.973550E-02 0.973550E-02 0.105364E-01
3.986470 0.978792E-02 0.978792E-02 0.105896E-01
4.013680 0.984082E-02 0.984082E-02 0.106434E-01
4.040890 0.989423E-02 0.989423E-02 0.106975E-01
4.068100 0.994815E-02 0.994815E-02 0.107522E-01
4.095310 0.100026E-01 0.100026E-01 0.108072E-01
4.122530 0.100576E-01 0.100576E-01 0.108628E-01
4.149740 0.101131E-01 0.101131E-01 0.109188E-01
4.176950 0.101691E-01 0.101691E-01 0.109753E-01
4.204160 0.102257E-01 0.102257E-01 0.110323E-01
4.231370 0.102828E-01 0.102828E-01 0.110898E-01
4.258580 0.103405E-01 0.103405E-01 0.111477E-01
4.285790 0.103988E-01 0.103988E-01 0.112062E-01
4.313010 0.104577E-01 0.104577E-01 0.112652E-01
4.340220 0.105171E-01 0.105171E-01 0.113246E-01
4.367430 0.105772E-01 0.105772E-01 0.113846E-01
4.394640 0.106378E-01 0.106378E-01 0.114451E-01
4.421850 0.106991E-01 0.106991E-01 0.115062E-01
4.449060 0.107610E-01 0.107610E-01 0.115678E-01
4.476270 0.108235E-01 0.108235E-01 0.116299E-01
4.503490 0.108868E-01 0.108868E-01 0.116926E-01
4.530700 0.109506E-01 0.109506E-01 0.117559E-01
4.557910 0.110152E-01 0.110152E-01 0.118197E-01
4.585120 0.110804E-01 0.110804E-01 0.118841E-01
4.612330 0.111463E-01 0.111463E-01 0.119491E-01
4.639540 0.112129E-01 0.112129E-01 0.120147E-01
4.666750 0.112803E-01 0.112803E-01 0.120808E-01
4.693970 0.113484E-01 0.113484E-01 0.121476E-01
4.721180 0.114172E-01 0.114172E-01 0.122150E-01
4.748390 0.114867E-01 0.114867E-01 0.122830E-01
4.775600 0.115571E-01 0.115571E-01 0.123517E-01
4.802810 0.116282E-01 0.116282E-01 0.124210E-01
4.830020 0.117001E-01 0.117001E-01 0.124909E-01
4.857230 0.117728E-01 0.117728E-01 0.125615E-01
4.884450 0.118464E-01 0.118464E-01 0.126328E-01
4.911660 0.119208E-01 0.119208E-01 0.127047E-01
4.938870 0.119961E-01 0.119961E-01 0.127773E-01
4.966080 0.120722E-01 0.120722E-01 0.128506E-01
4.993290 0.121492E-01 0.121492E-01 0.129247E-01
5.020500 0.122271E-01 0.122271E-01 0.129994E-01
5.047710 0.123060E-01 0.123060E-01 0.130749E-01
5.074930 0.123858E-01 0.123858E-01 0.131511E-01
5.102140 0.124665E-01 0.124665E-01 0.132280E-01
5.129350 0.125482E-01 0.125482E-01 0.133057E-01
5.156560 0.126310E-01 0.126310E-01 0.133842E-01
5.183770 0.127147E-01 0.127147E-01 0.134634E-01
5.210980 0.127995E-01 0.127995E-01 0.135435E-01
5.238190 0.128853E-01 0.128853E-01 0.136243E-01
5.265400 0.129722E-01 0.129722E-01 0.137060E-01
5.292620 0.130602E-01 0.130602E-01 0.137885E-01
5.319830 0.131493E-01 0.131493E-01 0.138718E-01
5.347040 0.132396E-01 0.132396E-01 0.139560E-01
5.374250 0.133311E-01 0.133311E-01 0.140411E-01
5.401460 0.134237E-01 0.134237E-01 0.141270E-01
5.428670 0.135176E-01 0.135176E-01 0.142138E-01
5.455880 0.136127E-01 0.136127E-01 0.143015E-01
5.483100 0.137091E-01 0.137091E-01 0.143902E-01
5.510310 0.138068E-01 0.138068E-01 0.144798E-01
5.537520 0.139058E-01 0.139058E-01 0.145703E-01
5.564730 0.140062E-01 0.140062E-01 0.146618E-01
5.591940 0.141080E-01 0.141080E-01 0.147543E-01
5.619150 0.142112E-01 0.142112E-01 0.148478E-01
5.646360 0.143159E-01 0.143159E-01 0.149423E-01
5.673580 0.144221E-01 0.144221E-01 0.150378E-01
5.700790 0.145299E-01 0.145299E-01 0.151344E-01
5.728000 0.146391E-01 0.146391E-01 0.152320E-01
5.755210 0.147500E-01 0.147500E-01 0.153307E-01
5.782420 0.148626E-01 0.148626E-01 0.154305E-01
5.809630 0.149768E-01 0.149768E-01 0.155315E-01
5.836840 0.150928E-01 0.150928E-01 0.156335E-01
5.864060 0.152106E-01 0.152106E-01 0.157368E-01
5.891270 0.153301E-01 0.153301E-01 0.158412E-01
5.918480 0.154516E-01 0.154516E-01 0.159468E-01
5.945690 0.155749E-01 0.155749E-01 0.160536E-01
5.972900 0.157003E-01 0.157003E-01 0.161617E-01
6.000110 0.158277E-01 0.158277E-01 0.162710E-01
6.027320 0.159571E-01 0.159571E-01 0.163816E-01
6.054540 0.160888E-01 0.160888E-01 0.164936E-01
6.081750 0.162226E-01 0.162226E-01 0.166068E-01
6.108960 0.163587E-01 0.163587E-01 0.167214E-01
6.136170 0.164971E-01 0.164971E-01 0.168374E-01
6.163380 0.166380E-01 0.166380E-01 0.169548E-01
6.190590 0.167813E-01 0.167813E-01 0.170736E-01
6.217800 0.169272E-01 0.169272E-01 0.171939E-01
6.245020 0.170758E-01 0.170758E-01 0.173158E-01
6.272230 0.172270E-01 0.172270E-01 0.174391E-01
6.299440 0.173811E-01 0.173811E-01 0.175639E-01
6.326650 0.175381E-01 0.175381E-01 0.176903E-01
6.353860 0.176981E-01 0.176981E-01 0.178184E-01
6.381070 0.178611E-01 0.178611E-01 0.179481E-01
6.408280 0.180275E-01 0.180275E-01 0.180794E-01
6.435490 0.181971E-01 0.181971E-01 0.182125E-01
6.462710 0.183703E-01 0.183703E-01 0.183474E-01
6.489920 0.185469E-01 0.185469E-01 0.184840E-01
6.517130 0.187273E-01 0.187273E-01 0.186224E-01
6.544340 0.189116E-01 0.189116E-01 0.187626E-01
6.571550 0.190998E-01 0.190998E-01 0.189048E-01
6.598760 0.192922E-01 0.192922E-01 0.190489E-01
6.625970 0.194890E-01 0.194890E-01 0.191950E-01
6.653190 0.196903E-01 0.196903E-01 0.193432E-01
6.680400 0.198963E-01 0.198963E-01 0.194934E-01
6.707610 0.201072E-01 0.201072E-01 0.196457E-01
6.734820 0.203233E-01 0.203233E-01 0.198001E-01
6.762030 0.205447E-01 0.205447E-01 0.199568E-01
6.789240 0.207717E-01 0.207717E-01 0.201157E-01
6.816450 0.210047E-01 0.210047E-01 0.202770E-01
6.843670 0.212440E-01 0.212440E-01 0.204407E-01
6.870880 0.214897E-01 0.214897E-01 0.206068E-01
6.898090 0.217422E-01 0.217422E-01 0.207754E-01
6.925300 0.220021E-01 0.220021E-01 0.209465E-01
6.952510 0.222696E-01 0.222696E-01 0.211203E-01
6.979720 0.225452E-01 0.225452E-01 0.212967E-01
7.006930 0.228295E-01 0.228295E-01 0.214760E-01
7.034150 0.231232E-01 0.231232E-01 0.216581E-01
7.061360 0.234265E-01 0.234265E-01 0.218431E-01
7.088570 0.237404E-01 0.237404E-01 0.220311E-01
7.115780 0.240658E-01 0.240658E-01 0.222221E-01
7.142990 0.244034E-01 0.244034E-01 0.224164E-01
7.170200 0.247544E-01 0.247544E-01 0.226139E-01
7.197410 0.251202E-01 0.251202E-01 0.228148E-01
7.224630 0.255024E-01 0.255024E-01 0.230192E-01
7.251840 0.259026E-01 0.259026E-01 0.232272E-01
7.279050 0.263234E-01 0.263234E-01 0.234390E-01
7.306260 0.267677E-01 0.267677E-01 0.236546E-01
7.333470 0.272388E-01 0.272388E-01 0.238743E-01
7.360680 0.277410E-01 0.277410E-01 0.240982E-01
7.387890 0.282788E-01 0.282788E-01 0.243264E-01
7.415110 0.288571E-01 0.288571E-01 0.245594E-01
7.442320 0.294806E-01 0.294806E-01 0.247971E-01
7.469530 0.301545E-01 0.301545E-01 0.250399E-01
7.496740 0.308838E-01 0.308838E-01 0.252879E-01
7.523950 0.316735E-01 0.316735E-01 0.255414E-01
7.551160 0.325282E-01 0.325282E-01 0.258008E-01
7.578370 0.334522E-01 0.334522E-01 0.260663E-01
7.605580 0.344490E-01 0.344490E-01 0.263383E-01
7.632800 0.355216E-01 0.355216E-01 0.266173E-01
7.660010 0.366703E-01 0.366703E-01 0.269034E-01
7.687220 0.378943E-01 0.378943E-01 0.271971E-01
7.714430 0.391914E-01 0.391914E-01 0.274987E-01
7.741640 0.405587E-01 0.405587E-01 0.278082E-01
7.768850 0.419943E-01 0.419943E-01 0.281258E-01
7.796060 0.434972E-01 0.434972E-01 0.284514E-01
7.823280 0.450692E-01 0.450692E-01 0.287854E-01
7.850490 0.467128E-01 0.467128E-01 0.291274E-01
7.877700 0.484358E-01 0.484358E-01 0.294778E-01
7.904910 0.502500E-01 0.502500E-01 0.298369E-01
7.932120 0.521737E-01 0.521737E-01 0.302054E-01
7.959330 0.542336E-01 0.542336E-01 0.305839E-01
7.986540 0.564675E-01 0.564675E-01 0.309735E-01
8.013760 0.589282E-01 0.589282E-01 0.313756E-01
8.040970 0.616821E-01 0.616821E-01 0.317912E-01
8.068180 0.648195E-01 0.648195E-01 0.322219E-01
8.095390 0.684565E-01 0.684565E-01 0.326690E-01
8.122600 0.727380E-01 0.727380E-01 0.331342E-01
8.149810 0.778289E-01 0.778289E-01 0.336193E-01
8.177020 0.838890E-01 0.838890E-01 0.341264E-01
8.204240 0.910473E-01 0.910473E-01 0.346579E-01
8.231450 0.993740E-01 0.993740E-01 0.352161E-01
8.258660 0.108895E+00 0.108895E+00 0.358039E-01
8.285870 0.119588E+00 0.119588E+00 0.364243E-01
8.313080 0.131389E+00 0.131389E+00 0.370803E-01
8.340290 0.144194E+00 0.144194E+00 0.377752E-01
8.367500 0.157859E+00 0.157859E+00 0.385125E-01
8.394720 0.172205E+00 0.172205E+00 0.392961E-01
8.421930 0.187003E+00 0.187003E+00 0.401295E-01
8.449140 0.202021E+00 0.202021E+00 0.410172E-01
8.476350 0.217021E+00 0.217021E+00 0.419644E-01
8.503560 0.231783E+00 0.231783E+00 0.429765E-01
8.530770 0.246121E+00 0.246121E+00 0.440597E-01
8.557980 0.259893E+00 0.259893E+00 0.452201E-01
8.585200 0.273008E+00 0.273008E+00 0.464647E-01
8.612410 0.285399E+00 0.285399E+00 0.477981E-01
8.639620 0.297045E+00 0.297045E+00 0.492260E-01
8.666830 0.307947E+00 0.307947E+00 0.507520E-01
8.694040 0.318123E+00 0.318123E+00 0.523781E-01
8.721250 0.327619E+00 0.327619E+00 0.541041E-01
8.748460 0.336505E+00 0.336505E+00 0.559276E-01
8.775670 0.344871E+00 0.344871E+00 0.578445E-01
8.802890 0.352813E+00 0.352813E+00 0.598501E-01
8.830100 0.360402E+00 0.360402E+00 0.619362E-01
8.857310 0.367698E+00 0.367698E+00 0.640962E-01
8.884520 0.374743E+00 0.374743E+00 0.663221E-01
8.911730 0.381569E+00 0.381569E+00 0.686066E-01
8.938940 0.388203E+00 0.388203E+00 0.709441E-01
8.966150 0.394671E+00 0.394671E+00 0.733326E-01
8.993370 0.401003E+00 0.401003E+00 0.757749E-01
9.020580 0.407215E+00 0.407215E+00 0.782741E-01
9.047790 0.413325E+00 0.413325E+00 0.808379E-01
9.075000 0.419345E+00 0.419345E+00 0.834752E-01
9.102210 0.425286E+00 0.425286E+00 0.861968E-01
9.129420 0.431154E+00 0.431154E+00 0.890156E-01
9.156630 0.436954E+00 0.436954E+00 0.919471E-01
9.183850 0.442685E+00 0.442685E+00 0.950093E-01
9.211060 0.448337E+00 0.448337E+00 0.982175E-01
9.238270 0.453902E+00 0.453902E+00 0.101590E+00
9.265480 0.459369E+00 0.459369E+00 0.105142E+00
9.292690 0.464722E+00 0.464722E+00 0.108889E+00
9.319900 0.469947E+00 0.469947E+00 0.112841E+00
9.347110 0.475032E+00 0.475032E+00 0.117012E+00
9.374330 0.479976E+00 0.479976E+00 0.121418E+00
9.401540 0.484787E+00 0.484787E+00 0.126076E+00
9.428750 0.489484E+00 0.489484E+00 0.131014E+00
9.455960 0.494089E+00 0.494089E+00 0.136272E+00
9.483170 0.498618E+00 0.498618E+00 0.141900E+00
9.510380 0.503087E+00 0.503087E+00 0.147969E+00
9.537590 0.507503E+00 0.507503E+00 0.154577E+00
9.564810 0.511874E+00 0.511874E+00 0.161861E+00
9.592020 0.516198E+00 0.516198E+00 0.169996E+00
9.619230 0.520474E+00 0.520474E+00 0.179216E+00
9.646440 0.524700E+00 0.524700E+00 0.189786E+00
9.673650 0.528879E+00 0.528879E+00 0.201953E+00
9.700860 0.533022E+00 0.533022E+00 0.215900E+00
9.728070 0.537143E+00 0.537143E+00 0.231707E+00
9.755290 0.541261E+00 0.541261E+00 0.249357E+00
9.782500 0.545388E+00 0.545388E+00 0.268719E+00
9.809710 0.549539E+00 0.549539E+00 0.289594E+00
9.836920 0.553720E+00 0.553720E+00 0.311690E+00
9.864130 0.557939E+00 0.557939E+00 0.334645E+00
9.891340 0.562197E+00 0.562197E+00 0.358048E+00
9.918550 0.566497E+00 0.566497E+00 0.381500E+00
9.945760 0.570845E+00 0.570845E+00 0.404669E+00
9.972980 0.575256E+00 0.575256E+00 0.427324E+00
10.000190 0.579739E+00 0.579739E+00 0.449301E+00
10.027400 0.584313E+00 0.584313E+00 0.470533E+00
10.054610 0.588993E+00 0.588993E+00 0.491004E+00
10.081820 0.593792E+00 0.593792E+00 0.510734E+00
10.109030 0.598725E+00 0.598725E+00 0.529763E+00
10.136240 0.603800E+00 0.603800E+00 0.548118E+00
10.163460 0.609027E+00 0.609027E+00 0.565806E+00
10.190670 0.614392E+00 0.614392E+00 0.582787E+00
10.217880 0.619877E+00 0.619877E+00 0.599027E+00
10.245090 0.625451E+00 0.625451E+00 0.614506E+00
10.272300 0.631078E+00 0.631078E+00 0.629236E+00
10.299510 0.636719E+00 0.636719E+00 0.643242E+00
10.326720 0.642329E+00 0.642329E+00 0.656548E+00
10.353940 0.647889E+00 0.647889E+00 0.669198E+00
10.381150 0.653412E+00 0.653412E+00 0.681274E+00
10.408360 0.658950E+00 0.658950E+00 0.692931E+00
10.435570 0.664572E+00 0.664572E+00 0.704346E+00
10.462780 0.670360E+00 0.670360E+00 0.715686E+00
10.489990 0.676406E+00 0.676406E+00 0.727081E+00
10.517200 0.682823E+00 0.682823E+00 0.738622E+00
10.544420 0.689756E+00 0.689756E+00 0.750372E+00
10.571630 0.697373E+00 0.697373E+00 0.762353E+00
10.598840 0.705878E+00 0.705878E+00 0.774577E+00
10.626050 0.715496E+00 0.715496E+00 0.787016E+00
10.653260 0.726453E+00 0.726453E+00 0.799623E+00
10.680470 0.738911E+00 0.738911E+00 0.812334E+00
10.707680 0.752895E+00 0.752895E+00 0.825084E+00
10.734900 0.768301E+00 0.768301E+00 0.837816E+00
10.762110 0.785022E+00 0.785022E+00 0.850486E+00
10.789320 0.803142E+00 0.803142E+00 0.863098E+00
10.816530 0.822908E+00 0.822908E+00 0.875686E+00
10.843740 0.844601E+00 0.844601E+00 0.888312E+00
10.870950 0.868396E+00 0.868396E+00 0.901049E+00
10.898160 0.894343E+00 0.894343E+00 0.913971E+00
10.925380 0.922401E+00 0.922401E+00 0.927158E+00
10.952590 0.952385E+00 0.952385E+00 0.940667E+00
10.979800 0.984011E+00 0.984011E+00 0.954563E+00
11.007010 0.101696E+01 0.101696E+01 0.968899E+00
11.034220 0.105097E+01 0.105097E+01 0.983707E+00
11.061430 0.108583E+01 0.108583E+01 0.999014E+00
11.088640 0.112130E+01 0.112130E+01 0.101485E+01
11.115850 0.115713E+01 0.115713E+01 0.103127E+01
11.143070 0.119303E+01 0.119303E+01 0.104834E+01
11.170280 0.122856E+01 0.122856E+01 0.106611E+01
11.197490 0.126320E+01 0.126320E+01 0.108461E+01
11.224700 0.129643E+01 0.129643E+01 0.110388E+01
11.251910 0.132795E+01 0.132795E+01 0.112396E+01
11.279120 0.135770E+01 0.135770E+01 0.114488E+01
11.306330 0.138576E+01 0.138576E+01 0.116672E+01
11.333550 0.141233E+01 0.141233E+01 0.118956E+01
11.360760 0.143762E+01 0.143762E+01 0.121349E+01
11.387970 0.146198E+01 0.146198E+01 0.123866E+01
11.415180 0.148582E+01 0.148582E+01 0.126520E+01
11.442390 0.150951E+01 0.150951E+01 0.129317E+01
11.469600 0.153333E+01 0.153333E+01 0.132250E+01
11.496810 0.155735E+01 0.155735E+01 0.135293E+01
11.524030 0.158121E+01 0.158121E+01 0.138406E+01
11.551240 0.160387E+01 0.160387E+01 0.141538E+01
11.578450 0.162356E+01 0.162356E+01 0.144634E+01
11.605660 0.163777E+01 0.163777E+01 0.147637E+01
11.632870 0.164370E+01 0.164370E+01 0.150504E+01
11.660080 0.163979E+01 0.163979E+01 0.153237E+01
11.687290 0.162733E+01 0.162733E+01 0.155896E+01
11.714510 0.161018E+01 0.161018E+01 0.158563E+01
11.741720 0.159270E+01 0.159270E+01 0.161297E+01
11.768930 0.157804E+01 0.157804E+01 0.164116E+01
11.796140 0.156778E+01 0.156778E+01 0.167002E+01
11.823350 0.156236E+01 0.156236E+01 0.169895E+01
11.850560 0.156133E+01 0.156133E+01 0.172687E+01
11.877770 0.156349E+01 0.156349E+01 0.175229E+01
11.904990 0.156729E+01 0.156729E+01 0.177372E+01
11.932200 0.157146E+01 0.157146E+01 0.179023E+01
11.959410 0.157536E+01 0.157536E+01 0.180190E+01
11.986620 0.157910E+01 0.157910E+01 0.180987E+01
12.013830 0.158332E+01 0.158332E+01 0.181615E+01
12.041040 0.158879E+01 0.158879E+01 0.182285E+01
12.068250 0.159592E+01 0.159592E+01 0.183145E+01
12.095470 0.160468E+01 0.160468E+01 0.184266E+01
12.122680 0.161444E+01 0.161444E+01 0.185673E+01
12.149890 0.162391E+01 0.162391E+01 0.187378E+01
12.177100 0.163164E+01 0.163164E+01 0.189396E+01
12.204310 0.163686E+01 0.163686E+01 0.191744E+01
12.231520 0.163969E+01 0.163969E+01 0.194436E+01
12.258730 0.164042E+01 0.164042E+01 0.197459E+01
12.285940 0.163916E+01 0.163916E+01 0.200758E+01
12.313160 0.163614E+01 0.163614E+01 0.204229E+01
12.340370 0.163204E+01 0.163204E+01 0.207712E+01
12.367580 0.162754E+01 0.162754E+01 0.210989E+01
12.394790 0.162309E+01 0.162309E+01 0.213820E+01
12.422000 0.161893E+01 0.161893E+01 0.216018E+01
12.449210 0.161530E+01 0.161530E+01 0.217542E+01
12.476420 0.161247E+01 0.161247E+01 0.218521E+01
12.503640 0.161060E+01 0.161060E+01 0.219200E+01
12.530850 0.160980E+01 0.160980E+01 0.219857E+01
12.558060 0.161023E+01 0.161023E+01 0.220736E+01
12.585270 0.161215E+01 0.161215E+01 0.221984E+01
12.612480 0.161581E+01 0.161581E+01 0.223637E+01
12.639690 0.162140E+01 0.162140E+01 0.225653E+01
12.666900 0.162898E+01 0.162898E+01 0.227951E+01
12.694120 0.163849E+01 0.163849E+01 0.230430E+01
12.721330 0.164993E+01 0.164993E+01 0.232978E+01
12.748540 0.166359E+01 0.166359E+01 0.235523E+01
12.775750 0.168023E+01 0.168023E+01 0.238035E+01
12.802960 0.170097E+01 0.170097E+01 0.240508E+01
12.830170 0.172684E+01 0.172684E+01 0.242926E+01
12.857380 0.175844E+01 0.175844E+01 0.245258E+01
12.884600 0.179591E+01 0.179591E+01 0.247474E+01
12.911810 0.183899E+01 0.183899E+01 0.249567E+01
12.939020 0.188704E+01 0.188704E+01 0.251548E+01
12.966230 0.193896E+01 0.193896E+01 0.253426E+01
12.993440 0.199328E+01 0.199328E+01 0.255184E+01
13.020650 0.204867E+01 0.204867E+01 0.256820E+01
13.047860 0.210411E+01 0.210411E+01 0.258391E+01
13.075080 0.215865E+01 0.215865E+01 0.260030E+01
13.102290 0.221120E+01 0.221120E+01 0.261930E+01
13.129500 0.226081E+01 0.226081E+01 0.264294E+01
13.156710 0.230695E+01 0.230695E+01 0.267278E+01
13.183920 0.234993E+01 0.234993E+01 0.270994E+01
13.211130 0.239060E+01 0.239060E+01 0.275553E+01
13.238340 0.242984E+01 0.242984E+01 0.281082E+01
13.265560 0.246843E+01 0.246843E+01 0.287698E+01
13.292770 0.250701E+01 0.250701E+01 0.295392E+01
13.319980 0.254617E+01 0.254617E+01 0.303940E+01
13.347190 0.258645E+01 0.258645E+01 0.312856E+01
13.374400 0.262830E+01 0.262830E+01 0.321543E+01
13.401610 0.267202E+01 0.267202E+01 0.329537E+01
13.428820 0.271779E+01 0.271779E+01 0.336644E+01
13.456030 0.276583E+01 0.276583E+01 0.342894E+01
13.483250 0.281649E+01 0.281649E+01 0.348450E+01
13.510460 0.287031E+01 0.287031E+01 0.353525E+01
13.537670 0.292815E+01 0.292815E+01 0.358358E+01
13.564880 0.299086E+01 0.299086E+01 0.363171E+01
13.592090 0.305876E+01 0.305876E+01 0.368151E+01
13.619300 0.313076E+01 0.313076E+01 0.373418E+01
13.646510 0.320444E+01 0.320444E+01 0.379013E+01
13.673730 0.327726E+01 0.327726E+01 0.384921E+01
13.700940 0.334706E+01 0.334706E+01 0.391115E+01
13.728150 0.341149E+01 0.341149E+01 0.397530E+01
13.755360 0.346754E+01 0.346754E+01 0.404003E+01
13.782570 0.351210E+01 0.351210E+01 0.410392E+01
13.809780 0.354272E+01 0.354272E+01 0.416724E+01
13.836990 0.355802E+01 0.355802E+01 0.423134E+01
13.864210 0.355751E+01 0.355751E+01 0.429734E+01
13.891420 0.354129E+01 0.354129E+01 0.436534E+01
13.918630 0.351052E+01 0.351052E+01 0.443491E+01
13.945840 0.346860E+01 0.346860E+01 0.450574E+01
13.973050 0.342162E+01 0.342162E+01 0.457820E+01
14.000260 0.337593E+01 0.337593E+01 0.465331E+01
14.027470 0.333549E+01 0.333549E+01 0.473239E+01
14.054690 0.330175E+01 0.330175E+01 0.481687E+01
14.081900 0.327471E+01 0.327471E+01 0.490812E+01
14.109110 0.325394E+01 0.325394E+01 0.500774E+01
14.136320 0.323923E+01 0.323923E+01 0.511750E+01
14.163530 0.323084E+01 0.323084E+01 0.523910E+01
14.190740 0.322955E+01 0.322955E+01 0.537407E+01
14.217950 0.323636E+01 0.323636E+01 0.552324E+01
14.245170 0.325187E+01 0.325187E+01 0.568594E+01
14.272380 0.327570E+01 0.327570E+01 0.585877E+01
14.299590 0.330643E+01 0.330643E+01 0.603538E+01
14.326800 0.334198E+01 0.334198E+01 0.620785E+01
14.354010 0.337988E+01 0.337988E+01 0.636920E+01
14.381220 0.341717E+01 0.341717E+01 0.651316E+01
14.408430 0.345063E+01 0.345063E+01 0.663209E+01
14.435650 0.347760E+01 0.347760E+01 0.671828E+01
14.462860 0.349662E+01 0.349662E+01 0.676857E+01
14.490070 0.350775E+01 0.350775E+01 0.678670E+01
14.517280 0.351211E+01 0.351211E+01 0.678025E+01
14.544490 0.351136E+01 0.351136E+01 0.675697E+01
14.571700 0.350732E+01 0.350732E+01 0.672274E+01
14.598910 0.350138E+01 0.350138E+01 0.668094E+01
14.626120 0.349414E+01 0.349414E+01 0.663262E+01
14.653340 0.348560E+01 0.348560E+01 0.657786E+01
14.680550 0.347579E+01 0.347579E+01 0.651747E+01
14.707760 0.346511E+01 0.346511E+01 0.645267E+01
14.734970 0.345442E+01 0.345442E+01 0.638389E+01
14.762180 0.344466E+01 0.344466E+01 0.631035E+01
14.789390 0.343647E+01 0.343647E+01 0.623102E+01
14.816600 0.342963E+01 0.342963E+01 0.614583E+01
14.843820 0.342294E+01 0.342294E+01 0.605696E+01
14.871030 0.341469E+01 0.341469E+01 0.596960E+01
14.898240 0.340327E+01 0.340327E+01 0.589058E+01
14.925450 0.338674E+01 0.338674E+01 0.582587E+01
14.952660 0.336375E+01 0.336375E+01 0.577856E+01
14.979870 0.333573E+01 0.333573E+01 0.574917E+01
15.007080 0.330640E+01 0.330640E+01 0.573658E+01
15.034300 0.327907E+01 0.327907E+01 0.573850E+01
15.061510 0.325514E+01 0.325514E+01 0.575114E+01
15.088720 0.323420E+01 0.323420E+01 0.576851E+01
15.115930 0.321496E+01 0.321496E+01 0.578259E+01
15.143140 0.319633E+01 0.319633E+01 0.578559E+01
15.170350 0.317800E+01 0.317800E+01 0.577279E+01
15.197560 0.316025E+01 0.316025E+01 0.574351E+01
15.224780 0.314366E+01 0.314366E+01 0.570043E+01
15.251990 0.312904E+01 0.312904E+01 0.564808E+01
15.279200 0.311723E+01 0.311723E+01 0.559117E+01
15.306410 0.310886E+01 0.310886E+01 0.553357E+01
15.333620 0.310449E+01 0.310449E+01 0.547815E+01
15.360830 0.310484E+01 0.310484E+01 0.542687E+01
15.388040 0.311107E+01 0.311107E+01 0.538053E+01
15.415260 0.312506E+01 0.312506E+01 0.533835E+01
15.442470 0.314961E+01 0.314961E+01 0.529825E+01
15.469680 0.318862E+01 0.318862E+01 0.525825E+01
15.496890 0.324689E+01 0.324689E+01 0.521813E+01
15.524100 0.332804E+01 0.332804E+01 0.517943E+01
15.551310 0.343138E+01 0.343138E+01 0.514387E+01
15.578520 0.355132E+01 0.355132E+01 0.511170E+01
15.605740 0.368050E+01 0.368050E+01 0.508148E+01
15.632950 0.381204E+01 0.381204E+01 0.505108E+01
15.660160 0.394054E+01 0.394054E+01 0.501869E+01
15.687370 0.406286E+01 0.406286E+01 0.498342E+01
15.714580 0.417839E+01 0.417839E+01 0.494514E+01
15.741790 0.428655E+01 0.428655E+01 0.490437E+01
15.769000 0.438509E+01 0.438509E+01 0.486214E+01
15.796210 0.447177E+01 0.447177E+01 0.481997E+01
15.823430 0.454597E+01 0.454597E+01 0.477921E+01
15.850640 0.460689E+01 0.460689E+01 0.473997E+01
15.877850 0.465184E+01 0.465184E+01 0.470033E+01
15.905060 0.467712E+01 0.467712E+01 0.465711E+01
15.932270 0.468106E+01 0.468106E+01 0.460752E+01
15.959480 0.466591E+01 0.466591E+01 0.455080E+01
15.986690 0.463698E+01 0.463698E+01 0.448878E+01
16.013910 0.460002E+01 0.460002E+01 0.442493E+01
16.041120 0.455944E+01 0.455944E+01 0.436268E+01
16.068330 0.451821E+01 0.451821E+01 0.430432E+01
16.095540 0.447859E+01 0.447859E+01 0.425151E+01
16.122750 0.444251E+01 0.444251E+01 0.420554E+01
16.149960 0.441134E+01 0.441134E+01 0.416712E+01
16.177170 0.438575E+01 0.438575E+01 0.413624E+01
16.204390 0.436615E+01 0.436615E+01 0.411260E+01
16.231600 0.435322E+01 0.435322E+01 0.409635E+01
16.258810 0.434798E+01 0.434798E+01 0.408825E+01
16.286020 0.435127E+01 0.435127E+01 0.408914E+01
16.313230 0.436242E+01 0.436242E+01 0.409890E+01
16.340440 0.437785E+01 0.437785E+01 0.411560E+01
16.367650 0.439148E+01 0.439148E+01 0.413593E+01
16.394870 0.439739E+01 0.439739E+01 0.415694E+01
16.422080 0.439238E+01 0.439238E+01 0.417706E+01
16.449290 0.437641E+01 0.437641E+01 0.419501E+01
16.476500 0.435076E+01 0.435076E+01 0.420831E+01
16.503710 0.431656E+01 0.431656E+01 0.421402E+01
16.530920 0.427532E+01 0.427532E+01 0.421092E+01
16.558130 0.422934E+01 0.422934E+01 0.419981E+01
16.585350 0.418142E+01 0.418142E+01 0.418214E+01
16.612560 0.413472E+01 0.413472E+01 0.415928E+01
16.639770 0.409244E+01 0.409244E+01 0.413245E+01
16.666980 0.405742E+01 0.405742E+01 0.410308E+01
16.694190 0.403166E+01 0.403166E+01 0.407288E+01
16.721400 0.401590E+01 0.401590E+01 0.404360E+01
16.748610 0.400963E+01 0.400963E+01 0.401658E+01
16.775830 0.401115E+01 0.401115E+01 0.399234E+01
16.803040 0.401768E+01 0.401768E+01 0.397021E+01
16.830250 0.402602E+01 0.402602E+01 0.394815E+01
16.857460 0.403353E+01 0.403353E+01 0.392360E+01
16.884670 0.403879E+01 0.403879E+01 0.389477E+01
16.911880 0.404147E+01 0.404147E+01 0.386168E+01
16.939090 0.404138E+01 0.404138E+01 0.382610E+01
16.966300 0.403809E+01 0.403809E+01 0.379054E+01
16.993520 0.403166E+01 0.403166E+01 0.375720E+01
17.020730 0.402359E+01 0.402359E+01 0.372795E+01
17.047940 0.401624E+01 0.401624E+01 0.370440E+01
17.075150 0.401140E+01 0.401140E+01 0.368790E+01
17.102360 0.400983E+01 0.400983E+01 0.367950E+01
17.129570 0.401134E+01 0.401134E+01 0.367994E+01
17.156780 0.401454E+01 0.401454E+01 0.368949E+01
17.184000 0.401657E+01 0.401657E+01 0.370752E+01
17.211210 0.401423E+01 0.401423E+01 0.373246E+01
17.238420 0.400579E+01 0.400579E+01 0.376213E+01
17.265630 0.399189E+01 0.399189E+01 0.379437E+01
17.292840 0.397432E+01 0.397432E+01 0.382722E+01
17.320050 0.395374E+01 0.395374E+01 0.385857E+01
17.347260 0.392903E+01 0.392903E+01 0.388593E+01
17.374480 0.389916E+01 0.389916E+01 0.390715E+01
17.401690 0.386586E+01 0.386586E+01 0.392180E+01
17.428900 0.383380E+01 0.383380E+01 0.393160E+01
17.456110 0.380823E+01 0.380823E+01 0.393916E+01
17.483320 0.379237E+01 0.379237E+01 0.394675E+01
17.510530 0.378665E+01 0.378665E+01 0.395524E+01
17.537740 0.378958E+01 0.378958E+01 0.396383E+01
17.564960 0.379932E+01 0.379932E+01 0.397118E+01
17.592170 0.381451E+01 0.381451E+01 0.397712E+01
17.619380 0.383439E+01 0.383439E+01 0.398360E+01
17.646590 0.385864E+01 0.385864E+01 0.399480E+01
17.673800 0.388764E+01 0.388764E+01 0.401600E+01
17.701010 0.392205E+01 0.392205E+01 0.405106E+01
17.728220 0.396160E+01 0.396160E+01 0.409993E+01
17.755440 0.400423E+01 0.400423E+01 0.415895E+01
17.782650 0.404678E+01 0.404678E+01 0.422358E+01
17.809860 0.408644E+01 0.408644E+01 0.429065E+01
17.837070 0.412180E+01 0.412180E+01 0.435838E+01
17.864280 0.415300E+01 0.415300E+01 0.442557E+01
17.891490 0.418118E+01 0.418118E+01 0.449072E+01
17.918700 0.420792E+01 0.420792E+01 0.455196E+01
17.945920 0.423466E+01 0.423466E+01 0.460730E+01
17.973130 0.426214E+01 0.426214E+01 0.465485E+01
18.000340 0.428997E+01 0.428997E+01 0.469375E+01
18.027550 0.431670E+01 0.431670E+01 0.472495E+01
18.054760 0.434058E+01 0.434058E+01 0.475046E+01
18.081970 0.436025E+01 0.436025E+01 0.477165E+01
18.109180 0.437498E+01 0.437498E+01 0.478853E+01
18.136390 0.438454E+01 0.438454E+01 0.479986E+01
18.163610 0.438894E+01 0.438894E+01 0.480344E+01
18.190820 0.438811E+01 0.438811E+01 0.479649E+01
18.218030 0.438186E+01 0.438186E+01 0.477682E+01
18.245240 0.437101E+01 0.437101E+01 0.474490E+01
18.272450 0.435808E+01 0.435808E+01 0.470479E+01
18.299660 0.434569E+01 0.434569E+01 0.466187E+01
18.326870 0.433412E+01 0.433412E+01 0.461973E+01
18.354090 0.432082E+01 0.432082E+01 0.457951E+01
18.381300 0.430193E+01 0.430193E+01 0.454116E+01
18.408510 0.427437E+01 0.427437E+01 0.450481E+01
18.435720 0.423708E+01 0.423708E+01 0.447076E+01
18.462930 0.419089E+01 0.419089E+01 0.443821E+01
18.490140 0.413771E+01 0.413771E+01 0.440457E+01
18.517350 0.407977E+01 0.407977E+01 0.436614E+01
18.544570 0.401932E+01 0.401932E+01 0.432030E+01
18.571780 0.395850E+01 0.395850E+01 0.426744E+01
18.598990 0.389892E+01 0.389892E+01 0.421045E+01
18.626200 0.384181E+01 0.384181E+01 0.415309E+01
18.653410 0.378853E+01 0.378853E+01 0.409857E+01
18.680620 0.374048E+01 0.374048E+01 0.404882E+01
18.707830 0.369847E+01 0.369847E+01 0.400430E+01
18.735050 0.366257E+01 0.366257E+01 0.396449E+01
18.762260 0.363271E+01 0.363271E+01 0.392859E+01
18.789470 0.360909E+01 0.360909E+01 0.389546E+01
18.816680 0.359189E+01 0.359189E+01 0.386309E+01
18.843890 0.358057E+01 0.358057E+01 0.382855E+01
18.871100 0.357356E+01 0.357356E+01 0.378936E+01
18.898310 0.356844E+01 0.356844E+01 0.374528E+01
18.925530 0.356288E+01 0.356288E+01 0.369806E+01
18.952740 0.355575E+01 0.355575E+01 0.364980E+01
18.979950 0.354723E+01 0.354723E+01 0.360227E+01
19.007160 0.353823E+01 0.353823E+01 0.355669E+01
19.034370 0.352958E+01 0.352958E+01 0.351329E+01
19.061580 0.352156E+01 0.352156E+01 0.347179E+01
19.088790 0.351380E+01 0.351380E+01 0.343231E+01
19.116010 0.350555E+01 0.350555E+01 0.339575E+01
19.143220 0.349607E+01 0.349607E+01 0.336360E+01
19.170430 0.348471E+01 0.348471E+01 0.333706E+01
19.197640 0.347109E+01 0.347109E+01 0.331648E+01
19.224850 0.345486E+01 0.345486E+01 0.330119E+01
19.252060 0.343547E+01 0.343547E+01 0.328975E+01
19.279270 0.341204E+01 0.341204E+01 0.328046E+01
19.306480 0.338397E+01 0.338397E+01 0.327175E+01
19.333700 0.335204E+01 0.335204E+01 0.326290E+01
19.360910 0.331895E+01 0.331895E+01 0.325457E+01
19.388120 0.328819E+01 0.328819E+01 0.324863E+01
19.415330 0.326260E+01 0.326260E+01 0.324745E+01
19.442540 0.324355E+01 0.324355E+01 0.325301E+01
19.469750 0.323097E+01 0.323097E+01 0.326619E+01
19.496960 0.322411E+01 0.322411E+01 0.328656E+01
19.524180 0.322186E+01 0.322186E+01 0.331260E+01
19.551390 0.322258E+01 0.322258E+01 0.334223E+01
19.578600 0.322454E+01 0.322454E+01 0.337344E+01
19.605810 0.322673E+01 0.322673E+01 0.340460E+01
19.633020 0.322893E+01 0.322893E+01 0.343441E+01
19.660230 0.323101E+01 0.323101E+01 0.346173E+01
19.687440 0.323253E+01 0.323253E+01 0.348567E+01
19.714660 0.323269E+01 0.323269E+01 0.350602E+01
19.741870 0.323049E+01 0.323049E+01 0.352384E+01
19.769080 0.322530E+01 0.322530E+01 0.354165E+01
19.796290 0.321728E+01 0.321728E+01 0.356240E+01
19.823500 0.320720E+01 0.320720E+01 0.358793E+01
19.850710 0.319600E+01 0.319600E+01 0.361754E+01
19.877920 0.318440E+01 0.318440E+01 0.364768E+01
19.905140 0.317280E+01 0.317280E+01 0.367252E+01
19.932350 0.316127E+01 0.316127E+01 0.368511E+01
19.959560 0.314945E+01 0.314945E+01 0.367908E+01
19.986770 0.313681E+01 0.313681E+01 0.365029E+01
20.013980 0.312285E+01 0.312285E+01 0.359799E+01
20.041190 0.310721E+01 0.310721E+01 0.352528E+01
20.068400 0.308986E+01 0.308986E+01 0.343880E+01
20.095620 0.307155E+01 0.307155E+01 0.334687E+01
20.122830 0.305386E+01 0.305386E+01 0.325728E+01
20.150040 0.303831E+01 0.303831E+01 0.317510E+01
20.177250 0.302539E+01 0.302539E+01 0.310248E+01
20.204460 0.301446E+01 0.301446E+01 0.303955E+01
20.231670 0.300422E+01 0.300422E+01 0.298557E+01
20.258880 0.299348E+01 0.299348E+01 0.293940E+01
20.286100 0.298141E+01 0.298141E+01 0.289941E+01
20.313310 0.296728E+01 0.296728E+01 0.286361E+01
20.340520 0.294984E+01 0.294984E+01 0.282995E+01
20.367730 0.292722E+01 0.292722E+01 0.279675E+01
20.394940 0.289781E+01 0.289781E+01 0.276306E+01
20.422150 0.286120E+01 0.286120E+01 0.272881E+01
20.449360 0.281799E+01 0.281799E+01 0.269418E+01
20.476570 0.276901E+01 0.276901E+01 0.265897E+01
20.503790 0.271566E+01 0.271566E+01 0.262282E+01
20.531000 0.266073E+01 0.266073E+01 0.258602E+01
20.558210 0.260795E+01 0.260795E+01 0.254981E+01
20.585420 0.256078E+01 0.256078E+01 0.251620E+01
20.612630 0.252118E+01 0.252118E+01 0.248735E+01
20.639840 0.248945E+01 0.248945E+01 0.246509E+01
20.667050 0.246448E+01 0.246448E+01 0.245060E+01
20.694270 0.244423E+01 0.244423E+01 0.244416E+01
20.721480 0.242619E+01 0.242619E+01 0.244498E+01
20.748690 0.240800E+01 0.240800E+01 0.245131E+01
20.775900 0.238827E+01 0.238827E+01 0.246128E+01
20.803110 0.236666E+01 0.236666E+01 0.247363E+01
20.830320 0.234348E+01 0.234348E+01 0.248784E+01
20.857530 0.231923E+01 0.231923E+01 0.250381E+01
20.884750 0.229419E+01 0.229419E+01 0.252163E+01
20.911960 0.226832E+01 0.226832E+01 0.254109E+01
20.939170 0.224148E+01 0.224148E+01 0.256156E+01
20.966380 0.221388E+01 0.221388E+01 0.258212E+01
20.993590 0.218625E+01 0.218625E+01 0.260196E+01
21.020800 0.215988E+01 0.215988E+01 0.262049E+01
21.048010 0.213663E+01 0.213663E+01 0.263697E+01
21.075230 0.211818E+01 0.211818E+01 0.265025E+01
21.102440 0.210539E+01 0.210539E+01 0.265907E+01
21.129650 0.209813E+01 0.209813E+01 0.266268E+01
21.156860 0.209560E+01 0.209560E+01 0.266107E+01
21.184070 0.209645E+01 0.209645E+01 0.265476E+01
21.211280 0.209903E+01 0.209903E+01 0.264448E+01
21.238490 0.210185E+01 0.210185E+01 0.263099E+01
21.265710 0.210414E+01 0.210414E+01 0.261506E+01
21.292920 0.210596E+01 0.210596E+01 0.259745E+01
21.320130 0.210791E+01 0.210791E+01 0.257860E+01
21.347340 0.211060E+01 0.211060E+01 0.255876E+01
21.374550 0.211441E+01 0.211441E+01 0.253807E+01
21.401760 0.211934E+01 0.211934E+01 0.251672E+01
21.428970 0.212527E+01 0.212527E+01 0.249499E+01
21.456190 0.213209E+01 0.213209E+01 0.247335E+01
21.483400 0.213960E+01 0.213960E+01 0.245256E+01
21.510610 0.214745E+01 0.214745E+01 0.243342E+01
21.537820 0.215520E+01 0.215520E+01 0.241635E+01
21.565030 0.216227E+01 0.216227E+01 0.240082E+01
21.592240 0.216797E+01 0.216797E+01 0.238503E+01
21.619450 0.217180E+01 0.217180E+01 0.236654E+01
21.646660 0.217370E+01 0.217370E+01 0.234370E+01
21.673880 0.217411E+01 0.217411E+01 0.231640E+01
21.701090 0.217388E+01 0.217388E+01 0.228601E+01
21.728300 0.217386E+01 0.217386E+01 0.225469E+01
21.755510 0.217470E+01 0.217470E+01 0.222430E+01
21.782720 0.217671E+01 0.217671E+01 0.219541E+01
21.809930 0.217993E+01 0.217993E+01 0.216749E+01
21.837140 0.218441E+01 0.218441E+01 0.213972E+01
21.864360 0.219018E+01 0.219018E+01 0.211173E+01
21.891570 0.219708E+01 0.219708E+01 0.208373E+01
21.918780 0.220455E+01 0.220455E+01 0.205617E+01
21.945990 0.221171E+01 0.221171E+01 0.202955E+01
21.973200 0.221761E+01 0.221761E+01 0.200441E+01
22.000410 0.222139E+01 0.222139E+01 0.198118E+01
22.027620 0.222238E+01 0.222238E+01 0.195995E+01
22.054840 0.222028E+01 0.222028E+01 0.194034E+01
22.082050 0.221504E+01 0.221504E+01 0.192162E+01
22.109260 0.220651E+01 0.220651E+01 0.190297E+01
22.136470 0.219432E+01 0.219432E+01 0.188364E+01
22.163680 0.217830E+01 0.217830E+01 0.186300E+01
22.190890 0.215899E+01 0.215899E+01 0.184067E+01
22.218100 0.213791E+01 0.213791E+01 0.181700E+01
22.245320 0.211713E+01 0.211713E+01 0.179305E+01
22.272530 0.209838E+01 0.209838E+01 0.177010E+01
22.299740 0.208251E+01 0.208251E+01 0.174895E+01
22.326950 0.206958E+01 0.206958E+01 0.172990E+01
22.354160 0.205937E+01 0.205937E+01 0.171292E+01
22.381370 0.205162E+01 0.205162E+01 0.169783E+01
22.408580 0.204579E+01 0.204579E+01 0.168425E+01
22.435800 0.204099E+01 0.204099E+01 0.167162E+01
22.463010 0.203645E+01 0.203645E+01 0.165928E+01
22.490220 0.203190E+01 0.203190E+01 0.164684E+01
22.517430 0.202745E+01 0.202745E+01 0.163454E+01
22.544640 0.202314E+01 0.202314E+01 0.162320E+01
22.571850 0.201849E+01 0.201849E+01 0.161368E+01
22.599060 0.201252E+01 0.201252E+01 0.160652E+01
22.626280 0.200439E+01 0.200439E+01 0.160162E+01
22.653490 0.199389E+01 0.199389E+01 0.159832E+01
22.680700 0.198088E+01 0.198088E+01 0.159560E+01
22.707910 0.196503E+01 0.196503E+01 0.159261E+01
22.735120 0.194612E+01 0.194612E+01 0.158892E+01
22.762330 0.192439E+01 0.192439E+01 0.158439E+01
22.789540 0.190063E+01 0.190063E+01 0.157883E+01
22.816750 0.187598E+01 0.187598E+01 0.157201E+01
22.843970 0.185134E+01 0.185134E+01 0.156374E+01
22.871180 0.182728E+01 0.182728E+01 0.155410E+01
22.898390 0.180423E+01 0.180423E+01 0.154347E+01
22.925600 0.178256E+01 0.178256E+01 0.153235E+01
22.952810 0.176235E+01 0.176235E+01 0.152113E+01
22.980020 0.174326E+01 0.174326E+01 0.150985E+01
23.007230 0.172466E+01 0.172466E+01 0.149817E+01
23.034450 0.170594E+01 0.170594E+01 0.148566E+01
23.061660 0.168680E+01 0.168680E+01 0.147212E+01
23.088870 0.166733E+01 0.166733E+01 0.145766E+01
23.116080 0.164806E+01 0.164806E+01 0.144258E+01
23.143290 0.162961E+01 0.162961E+01 0.142730E+01
23.170500 0.161255E+01 0.161255E+01 0.141224E+01
23.197710 0.159727E+01 0.159727E+01 0.139779E+01
23.224930 0.158393E+01 0.158393E+01 0.138418E+01
23.252140 0.157260E+01 0.157260E+01 0.137161E+01
23.279350 0.156338E+01 0.156338E+01 0.136029E+01
23.306560 0.155632E+01 0.155632E+01 0.135038E+01
23.333770 0.155115E+01 0.155115E+01 0.134201E+01
23.360980 0.154721E+01 0.154721E+01 0.133514E+01
23.388190 0.154361E+01 0.154361E+01 0.132965E+01
23.415410 0.153956E+01 0.153956E+01 0.132527E+01
23.442620 0.153473E+01 0.153473E+01 0.132172E+01
23.469830 0.152908E+01 0.152908E+01 0.131868E+01
23.497040 0.152250E+01 0.152250E+01 0.131577E+01
23.524250 0.151455E+01 0.151455E+01 0.131245E+01
23.551460 0.150470E+01 0.150470E+01 0.130793E+01
23.578670 0.149274E+01 0.149274E+01 0.130130E+01
23.605890 0.147915E+01 0.147915E+01 0.129208E+01
23.633100 0.146483E+01 0.146483E+01 0.128035E+01
23.660310 0.145056E+01 0.145056E+01 0.126659E+01
23.687520 0.143672E+01 0.143672E+01 0.125148E+01
23.714730 0.142351E+01 0.142351E+01 0.123587E+01
23.741940 0.141100E+01 0.141100E+01 0.122067E+01
23.769150 0.139921E+01 0.139921E+01 0.120670E+01
23.796370 0.138806E+01 0.138806E+01 0.119447E+01
23.823580 0.137749E+01 0.137749E+01 0.118409E+01
23.850790 0.136752E+01 0.136752E+01 0.117541E+01
23.878000 0.135815E+01 0.135815E+01 0.116813E+01
23.905210 0.134929E+01 0.134929E+01 0.116185E+01
23.932420 0.134074E+01 0.134074E+01 0.115610E+01
23.959630 0.133223E+01 0.133223E+01 0.115042E+01
23.986840 0.132354E+01 0.132354E+01 0.114448E+01
24.014060 0.131442E+01 0.131442E+01 0.113808E+01
24.041270 0.130469E+01 0.130469E+01 0.113121E+01
24.068480 0.129424E+01 0.129424E+01 0.112392E+01
24.095690 0.128314E+01 0.128314E+01 0.111636E+01
24.122900 0.127156E+01 0.127156E+01 0.110873E+01
24.150110 0.125988E+01 0.125988E+01 0.110124E+01
24.177320 0.124847E+01 0.124847E+01 0.109402E+01
24.204540 0.123757E+01 0.123757E+01 0.108712E+01
24.231750 0.122720E+01 0.122720E+01 0.108054E+01
24.258960 0.121720E+01 0.121720E+01 0.107423E+01
24.286170 0.120748E+01 0.120748E+01 0.106812E+01
24.313380 0.119803E+01 0.119803E+01 0.106208E+01
24.340590 0.118883E+01 0.118883E+01 0.105593E+01
24.367800 0.117990E+01 0.117990E+01 0.104953E+01
24.395020 0.117134E+01 0.117134E+01 0.104287E+01
24.422230 0.116327E+01 0.116327E+01 0.103612E+01
24.449440 0.115576E+01 0.115576E+01 0.102946E+01
24.476650 0.114879E+01 0.114879E+01 0.102299E+01
24.503860 0.114231E+01 0.114231E+01 0.101668E+01
24.531070 0.113636E+01 0.113636E+01 0.101043E+01
24.558280 0.113106E+01 0.113106E+01 0.100404E+01
24.585500 0.112649E+01 0.112649E+01 0.997250E+00
24.612710 0.112262E+01 0.112262E+01 0.989795E+00
24.639920 0.111928E+01 0.111928E+01 0.981418E+00
24.667130 0.111623E+01 0.111623E+01 0.971898E+00
24.694340 0.111313E+01 0.111313E+01 0.961088E+00
24.721550 0.110971E+01 0.110971E+01 0.948945E+00
24.748760 0.110582E+01 0.110582E+01 0.935587E+00
24.775980 0.110149E+01 0.110149E+01 0.921377E+00
24.803190 0.109691E+01 0.109691E+01 0.906920E+00
24.830400 0.109237E+01 0.109237E+01 0.892765E+00
24.857610 0.108809E+01 0.108809E+01 0.879210E+00
24.884820 0.108418E+01 0.108418E+01 0.866348E+00
24.912030 0.108066E+01 0.108066E+01 0.854220E+00
24.939240 0.107756E+01 0.107756E+01 0.842951E+00
24.966460 0.107491E+01 0.107491E+01 0.832777E+00
24.993670 0.107284E+01 0.107284E+01 0.823989E+00
25.020880 0.107152E+01 0.107152E+01 0.816785E+00
25.048090 0.107112E+01 0.107112E+01 0.811209E+00
25.075300 0.107171E+01 0.107171E+01 0.807136E+00
25.102510 0.107325E+01 0.107325E+01 0.804311E+00
25.129720 0.107554E+01 0.107554E+01 0.802374E+00
25.156930 0.107821E+01 0.107821E+01 0.800863E+00
25.184150 0.108082E+01 0.108082E+01 0.799231E+00
25.211360 0.108297E+01 0.108297E+01 0.796936E+00
25.238570 0.108439E+01 0.108439E+01 0.793585E+00
25.265780 0.108489E+01 0.108489E+01 0.788956E+00
25.292990 0.108434E+01 0.108434E+01 0.782938E+00
25.320200 0.108259E+01 0.108259E+01 0.775510E+00
25.347410 0.107956E+01 0.107956E+01 0.766779E+00
25.374630 0.107517E+01 0.107517E+01 0.756958E+00
25.401840 0.106934E+01 0.106934E+01 0.746263E+00
25.429050 0.106211E+01 0.106211E+01 0.734879E+00
25.456260 0.105379E+01 0.105379E+01 0.723054E+00
25.483470 0.104483E+01 0.104483E+01 0.710999E+00
25.510680 0.103568E+01 0.103568E+01 0.698822E+00
25.537890 0.102672E+01 0.102672E+01 0.686634E+00
25.565110 0.101830E+01 0.101830E+01 0.674646E+00
25.592320 0.101074E+01 0.101074E+01 0.663180E+00
25.619530 0.100431E+01 0.100431E+01 0.652533E+00
25.646740 0.999079E+00 0.999079E+00 0.642830E+00
25.673950 0.994934E+00 0.994934E+00 0.634001E+00
25.701160 0.991625E+00 0.991625E+00 0.625910E+00
25.728370 0.988897E+00 0.988897E+00 0.618483E+00
25.755590 0.986495E+00 0.986495E+00 0.611692E+00
25.782800 0.984088E+00 0.984088E+00 0.605480E+00
25.810010 0.981312E+00 0.981312E+00 0.599714E+00
25.837220 0.978012E+00 0.978012E+00 0.594229E+00
25.864430 0.974413E+00 0.974413E+00 0.588899E+00
25.891640 0.970968E+00 0.970968E+00 0.583638E+00
25.918850 0.968086E+00 0.968086E+00 0.578354E+00
25.946070 0.966016E+00 0.966016E+00 0.572965E+00
25.973280 0.964876E+00 0.964876E+00 0.567477E+00
