PE UV                   SPECTRUM    ASCII       PEDS        1.60        
  -1
S19_01.SP
12/04/05
07:19:16.00
12/04/05
07:34:22.00


190.000000
1









4444

SCAN
1
1


0.0
1920.0
2.00
MANUAL



UV/VIS




































#HDR
-1
-1
#GR
NM
%R
0.00002384185791015625
0.0
1000.000000
1.000000
811
8
111.178000
25.283000
#DATA
1000.000000	58.156000  
999.000000	 57.747000  
998.000000	 57.702000  
997.000000	 57.763000  
996.000000	 57.782000  
995.000000	 57.977000  
994.000000	 57.599999  
993.000000	 57.330000  
992.000000	 57.627000  
991.000000	 57.401000  
990.000000	 57.365000  
989.000000	 57.505000  
988.000000	 57.423000  
987.000000	 57.501000  
986.000000	 57.614000  
985.000000	 57.601000  
984.000000	 57.401000  
983.000000	 56.875000  
982.000000	 56.977999  
981.000000	 57.226000  
980.000000	 56.977000  
979.000000	 56.993000  
978.000000	 57.220000  
977.000000	 57.043000  
976.000000	 56.828000  
975.000000	 57.107000  
974.000000	 56.823000  
973.000000	 56.653000  
972.000000	 56.438999  
971.000000	 56.436000  
970.000000	 56.777000  
969.000000	 56.704000  
968.000000	 56.532000  
967.000000	 56.117000  
966.000000	 56.242000  
965.000000	 56.072999  
964.000000	 55.867999  
963.000000	 55.461000  
962.000000	 55.533000  
961.000000	 56.130000  
960.000000	 55.967000  
959.000000	 55.461000  
958.000000	 55.250000  
957.000000	 55.033000  
956.000000	 54.797000  
955.000000	 54.984000  
954.000000	 55.279000  
953.000000	 55.175000  
952.000000	 54.945000  
951.000000	 55.141000  
950.000000	 55.055000  
949.000000	 54.935000  
948.000000	 54.494000  
947.000000	 54.556000  
946.000000	 54.544000  
945.000000	 54.409000  
944.000000	 54.478000  
943.000000	 54.047999  
942.000000	 53.877000  
941.000000	 53.989000  
940.000000	 54.013000  
939.000000	 53.977000  
938.000000	 53.896999  
937.000000	 53.793000  
936.000000	 53.551000  
935.000000	 53.585000  
934.000000	 53.624000  
933.000000	 53.408000  
932.000000	 53.207000  
931.000000	 53.263000  
930.000000	 53.163000  
929.000000	 52.888000  
928.000000	 52.782000  
927.000000	 52.872000  
926.000000	 52.903000  
925.000000	 52.825000  
924.000000	 52.793000  
923.000000	 52.551000  
922.000000	 52.730999  
921.000000	 52.480000  
920.000000	 52.208000  
919.000000	 52.229000  
918.000000	 52.141000  
917.000000	 52.151000  
916.000000	 52.036000  
915.000000	 52.042999  
914.000000	 51.829000  
913.000000	 51.573000  
912.000000	 51.684000  
911.000000	 51.732000  
910.000000	 51.300000  
909.000000	 51.296000  
908.000000	 51.500000  
907.000000	 51.261999  
906.000000	 51.093000  
905.000000	 51.151000  
904.000000	 51.218000  
903.000000	 50.418000  
902.000000	 50.440000  
901.000000	 50.822999  
900.000000	 50.857000  
899.000000	 50.743000  
898.000000	 50.575000  
897.000000	 50.355000  
896.000000	 49.799000  
895.000000	 49.849000  
894.000000	 50.053000  
893.000000	 49.927000  
892.000000	 50.080000  
891.000000	 50.293000  
890.000000	 50.306000  
889.000000	 49.991000  
888.000000	 49.871000  
887.000000	 49.673000  
886.000000	 49.480000  
885.000000	 49.330000  
884.000000	 49.383000  
883.000000	 49.294000  
882.000000	 49.338000  
881.000000	 49.221000  
880.000000	 49.175000  
879.000000	 48.700000  
878.000000	 48.017000  
877.000000	 48.330000  
876.000000	 48.501000  
875.000000	 48.198000  
874.000000	 48.699000  
873.000000	 48.515000  
872.000000	 48.716000  
871.000000	 48.718000  
870.000000	 48.583000  
869.000000	 47.661000  
868.000000	 47.895000  
867.000000	 48.160000  
866.000000	 47.864000  
865.000000	 47.674000  
864.000000	 47.742000  
863.000000	 47.821000  
862.000000	 47.331000  
861.000000	 46.872000  
860.000000	 47.126000  
859.000000	 47.099999  
858.000000	 46.974000  
857.000000	 46.977999  
856.000000	 46.703000  
855.000000	 46.575000  
854.000000	 46.467000  
853.000000	 46.768000  
852.000000	 46.535000  
851.000000	 46.219000  
850.000000	 46.406000  
849.000000	 46.489999  
848.000000	 46.321000  
847.000000	 46.280000  
846.000000	 45.962000  
845.000000	 45.702000  
844.000000	 45.879000  
843.000000	 45.309000  
842.000000	 45.078000  
841.000000	 45.093000  
840.000000	 45.106000  
839.000000	 45.269000  
838.000000	 44.827000  
837.000000	 44.989000  
836.000000	 45.104000  
835.000000	 44.825000  
834.000000	 44.421000  
833.000000	 44.490000  
832.000000	 44.388000  
831.000000	 44.301000  
830.000000	 44.149000  
829.000000	 44.468999  
828.000000	 43.813000  
827.000000	 43.904000  
826.000000	 43.887000  
825.000000	 43.934000  
824.000000	 43.844000  
823.000000	 43.572000  
822.000000	 43.873000  
821.000000	 43.777000  
820.000000	 43.466000  
819.000000	 43.167000  
818.000000	 43.171000  
817.000000	 43.039000  
816.000000	 42.553999  
815.000000	 42.647000  
814.000000	 42.563000  
813.000000	 42.675999  
812.000000	 42.860000  
811.000000	 42.681000  
810.000000	 42.555000  
809.000000	 42.177000  
808.000000	 41.939000  
807.000000	 41.830000  
806.000000	 41.737000  
805.000000	 41.913000  
804.000000	 41.624000  
803.000000	 41.879000  
802.000000	 41.911000  
801.000000	 41.644000  
800.000000	 41.492000  
799.000000	 41.387000  
798.000000	 41.137000  
797.000000	 41.369000  
796.000000	 41.533000  
795.000000	 41.162000  
794.000000	 40.812000  
793.000000	 40.994000  
792.000000	 40.774000  
791.000000	 40.812000  
790.000000	 40.576000  
789.000000	 40.581000  
788.000000	 40.358000  
787.000000	 40.283000  
786.000000	 40.222000  
785.000000	 40.065000  
784.000000	 39.921000  
783.000000	 39.705000  
782.000000	 39.680000  
781.000000	 39.506000  
780.000000	 39.230000  
779.000000	 39.304000  
778.000000	 39.384000  
777.000000	 39.282000  
776.000000	 39.100000  
775.000000	 38.916000  
774.000000	 38.623000  
773.000000	 38.678000  
772.000000	 38.711000  
771.000000	 38.367000  
770.000000	 38.405000  
769.000000	 38.590000  
768.000000	 38.335000  
767.000000	 38.137000  
766.000000	 38.035999  
765.000000	 38.033000  
764.000000	 37.852000  
763.000000	 37.563000  
762.000000	 37.555000  
761.000000	 37.448000  
760.000000	 37.222000  
759.000000	 37.417000  
758.000000	 37.385000  
757.000000	 37.216000  
756.000000	 36.936000  
755.000000	 36.986000  
754.000000	 36.750000  
753.000000	 36.559000  
752.000000	 36.482000  
751.000000	 36.618000  
750.000000	 36.470000  
749.000000	 36.329000  
748.000000	 36.316000  
747.000000	 36.187000  
746.000000	 35.989000  
745.000000	 36.034000  
744.000000	 35.865000  
743.000000	 35.810000  
742.000000	 35.616000  
741.000000	 35.549000  
740.000000	 35.594000  
739.000000	 35.252000  
738.000000	 35.228000  
737.000000	 35.082000  
736.000000	 34.830000  
735.000000	 34.947000  
734.000000	 34.727000  
733.000000	 34.645000  
732.000000	 34.483000  
731.000000	 34.446000  
730.000000	 34.275000  
729.000000	 34.105000  
728.000000	 34.044999  
727.000000	 33.969000  
726.000000	 33.830000  
725.000000	 33.859000  
724.000000	 33.900000  
723.000000	 33.685000  
722.000000	 33.388000  
721.000000	 33.357000  
720.000000	 33.270000  
719.000000	 33.079000  
718.000000	 33.057000  
717.000000	 33.026000  
716.000000	 32.882000  
715.000000	 32.855000  
714.000000	 32.746000  
713.000000	 32.528000  
712.000000	 32.474000  
711.000000	 32.361000  
710.000000	 32.478000  
709.000000	 32.369000  
708.000000	 32.153000  
707.000000	 32.104000  
706.000000	 32.132000  
705.000000	 31.871000  
704.000000	 31.816000  
703.000000	 31.639000  
702.000000	 31.713000  
701.000000	 31.476000  
700.000000	 31.415000  
699.000000	 31.416000  
698.000000	 31.211000  
697.000000	 31.087000  
696.000000	 31.178000  
695.000000	 31.097000  
694.000000	 31.042000  
693.000000	 30.961000  
692.000000	 30.797000  
691.000000	 30.856000  
690.000000	 30.663000  
689.000000	 30.668000  
688.000000	 30.463000  
687.000000	 30.313000  
686.000000	 30.324000  
685.000000	 30.305000  
684.000000	 30.184000  
683.000000	 30.063000  
682.000000	 30.069000  
681.000000	 29.967000  
680.000000	 29.918000  
679.000000	 29.852000  
678.000000	 29.612000  
677.000000	 29.536000  
676.000000	 29.541000  
675.000000	 29.366000  
674.000000	 29.247000  
673.000000	 29.278000  
672.000000	 29.308000  
671.000000	 29.356000  
670.000000	 29.343000  
669.000000	 29.281000  
668.000000	 28.990000  
667.000000	 28.871000  
666.000000	 28.832000  
665.000000	 28.700000  
664.000000	 28.577000  
663.000000	 28.415000  
662.000000	 28.383000  
661.000000	 28.396000  
660.000000	 28.449000  
659.000000	 28.407000  
658.000000	 28.245000  
657.000000	 28.271000  
656.000000	 28.087000  
655.000000	 28.126000  
654.000000	 27.843000  
653.000000	 27.887000  
652.000000	 27.862000  
651.000000	 27.827000  
650.000000	 27.774000  
649.000000	 27.650000  
648.000000	 27.370000  
647.000000	 27.401000  
646.000000	 27.370000  
645.000000	 27.167000  
644.000000	 27.301000  
643.000000	 27.436000  
642.000000	 27.289000  
641.000000	 27.156000  
640.000000	 27.125000  
639.000000	 26.978000  
638.000000	 26.799000  
637.000000	 26.696000  
636.000000	 26.752000  
635.000000	 26.660000  
634.000000	 26.748000  
633.000000	 26.721000  
632.000000	 26.662000  
631.000000	 26.528000  
630.000000	 26.476000  
629.000000	 26.376000  
628.000000	 26.247000  
627.000000	 26.282000  
626.000000	 26.245000  
625.000000	 26.313000  
624.000000	 26.230000  
623.000000	 26.201000  
622.000000	 26.234000  
621.000000	 25.935000  
620.000000	 25.888000  
619.000000	 25.905000  
618.000000	 25.922000  
617.000000	 25.860000  
616.000000	 25.939000  
615.000000	 25.881000  
614.000000	 25.746000  
613.000000	 25.665000  
612.000000	 25.675000  
611.000000	 25.625000  
610.000000	 25.599000  
609.000000	 25.630000  
608.000000	 25.611000  
607.000000	 25.568000  
606.000000	 25.550000  
605.000000	 25.501000  
604.000000	 25.641000  
603.000000	 25.483000  
602.000000	 25.358000  
601.000000	 25.377000  
600.000000	 25.413000  
599.000000	 25.432000  
598.000000	 25.396000  
597.000000	 25.396000  
596.000000	 25.401000  
595.000000	 25.348000  
594.000000	 25.397000  
593.000000	 25.406000  
592.000000	 25.360000  
591.000000	 25.388000  
590.000000	 25.355000  
589.000000	 25.296000  
588.000000	 25.373000  
587.000000	 25.298000  
586.000000	 25.283000  
585.000000	 25.311000  
584.000000	 25.284000  
583.000000	 25.301000  
582.000000	 25.381000  
581.000000	 25.425000  
580.000000	 25.471000  
579.000000	 25.427000  
578.000000	 25.423000  
577.000000	 25.375000  
576.000000	 25.353000  
575.000000	 25.467000  
574.000000	 25.577000  
573.000000	 25.608000  
572.000000	 25.541000  
571.000000	 25.619000  
570.000000	 25.658000  
569.000000	 25.617000  
568.000000	 25.643000  
567.000000	 25.773000  
566.000000	 25.808000  
565.000000	 25.860000  
564.000000	 26.001000  
563.000000	 25.984000  
562.000000	 25.940000  
561.000000	 25.988000  
560.000000	 26.053000  
559.000000	 26.150000  
558.000000	 26.266000  
557.000000	 26.368000  
556.000000	 26.415000  
555.000000	 26.540000  
554.000000	 26.632000  
553.000000	 26.711000  
552.000000	 26.753000  
551.000000	 26.806000  
550.000000	 26.844000  
549.000000	 26.979000  
548.000000	 27.086000  
547.000000	 27.108000  
546.000000	 27.167000  
545.000000	 27.291000  
544.000000	 27.370000  
543.000000	 27.405000  
542.000000	 27.484000  
541.000000	 27.636000  
540.000000	 27.707000  
539.000000	 27.936000  
538.000000	 28.061000  
537.000000	 28.126000  
536.000000	 28.296000  
535.000000	 28.448000  
534.000000	 28.467000  
533.000000	 28.673000  
532.000000	 28.803000  
531.000000	 28.864000  
530.000000	 29.022000  
529.000000	 29.200000  
528.000000	 29.327000  
527.000000	 29.442000  
526.000000	 29.572000  
525.000000	 29.632000  
524.000000	 29.781000  
523.000000	 29.986000  
522.000000	 30.175000  
521.000000	 30.477000  
520.000000	 30.658000  
519.000000	 30.669000  
518.000000	 30.805000  
517.000000	 30.937000  
516.000000	 31.143000  
515.000000	 31.236000  
514.000000	 31.480000  
513.000000	 31.641000  
512.000000	 31.851000  
511.000000	 32.118000  
510.000000	 32.260000  
509.000000	 32.317000  
508.000000	 32.539000  
507.000000	 32.723000  
506.000000	 32.850000  
505.000000	 33.158000  
504.000000	 33.418000  
503.000000	 33.644000  
502.000000	 33.793000  
501.000000	 33.992000  
500.000000	 34.162000  
499.000000	 34.353000  
498.000000	 34.639000  
497.000000	 34.855999  
496.000000	 35.230000  
495.000000	 35.481000  
494.000000	 35.632000  
493.000000	 35.919000  
492.000000	 36.124000  
491.000000	 36.318000  
490.000000	 36.627000  
489.000000	 36.899000  
488.000000	 37.211000  
487.000000	 37.530000  
486.000000	 37.812000  
485.000000	 37.993000  
484.000000	 38.084000  
483.000000	 38.589000  
482.000000	 38.770000  
481.000000	 39.107000  
480.000000	 39.449000  
479.000000	 39.602000  
478.000000	 40.073000  
477.000000	 40.271000  
476.000000	 40.518000  
475.000000	 40.834000  
474.000000	 41.198000  
473.000000	 41.412000  
472.000000	 41.672000  
471.000000	 41.957000  
470.000000	 42.275000  
469.000000	 42.734000  
468.000000	 43.081000  
467.000000	 43.368000  
466.000000	 43.927000  
465.000000	 44.216000  
464.000000	 44.402000  
463.000000	 44.787000  
462.000000	 45.061000  
461.000000	 45.517000  
460.000000	 46.076000  
459.000000	 46.334000  
458.000000	 46.515000  
457.000000	 46.956000  
456.000000	 47.200000  
455.000000	 47.471999  
454.000000	 47.818000  
453.000000	 48.356000  
452.000000	 49.021000  
451.000000	 49.297000  
450.000000	 49.545000  
449.000000	 49.980999  
448.000000	 50.344000  
447.000000	 50.869000  
446.000000	 51.247000  
445.000000	 51.514000  
444.000000	 52.036000  
443.000000	 52.680000  
442.000000	 52.821000  
441.000000	 53.295000  
440.000000	 53.886000  
439.000000	 54.225000  
438.000000	 54.663000  
437.000000	 55.054000  
436.000000	 55.391000  
435.000000	 55.763000  
434.000000	 56.411000  
433.000000	 57.025000  
432.000000	 57.294000  
431.000000	 57.491000  
430.000000	 57.909000  
429.000000	 58.340000  
428.000000	 59.066000  
427.000000	 59.657000  
426.000000	 60.175999  
425.000000	 60.739000  
424.000000	 60.982000  
423.000000	 61.413000  
422.000000	 61.907999  
421.000000	 62.452000  
420.000000	 62.921000  
419.000000	 63.316000  
418.000000	 63.848000  
417.000000	 64.269000  
416.000000	 64.653000  
415.000000	 65.423000  
414.000000	 65.941000  
413.000000	 66.476000  
412.000000	 67.069000  
411.000000	 67.331000  
410.000000	 67.805000  
409.000000	 68.348000  
408.000000	 68.815000  
407.000000	 69.363000  
406.000000	 69.934000  
405.000000	 70.596999  
404.000000	 70.909000  
403.000000	 71.199000  
402.000000	 71.862000  
401.000000	 72.753999  
400.000000	 73.514000  
399.000000	 73.779000  
398.000000	 74.804000  
397.000000	 75.157000  
396.000000	 75.653000  
395.000000	 75.780999  
394.000000	 75.949999  
393.000000	 76.895000  
392.000000	 77.407000  
391.000000	 77.789000  
390.000000	 78.238000  
389.000000	 78.791000  
388.000000	 79.480999  
387.000000	 80.572999  
386.000000	 80.656000  
385.000000	 81.001000  
384.000000	 81.980000  
383.000000	 82.571000  
382.000000	 83.560999  
381.000000	 84.871000  
380.000000	 84.264000  
379.000000	 84.651000  
378.000000	 85.456000  
377.000000	 85.931000  
376.000000	 86.355999  
375.000000	 87.124000  
374.000000	 87.738000  
373.000000	 88.312000  
372.000000	 88.964000  
371.000000	 89.101000  
370.000000	 89.766000  
369.000000	 90.250000  
368.000000	 90.673000  
367.000000	 90.378000  
366.000000	 90.816000  
365.000000	 91.388000  
364.000000	 92.245000  
363.000000	 92.325999  
362.000000	 92.481000  
361.000000	 92.416000  
360.000000	 92.694000  
359.000000	 93.042000  
358.000000	 93.256000  
357.000000	 94.051000  
356.000000	 94.122000  
355.000000	 94.992000  
354.000000	 95.111000  
353.000000	 95.548000  
352.000000	 95.848000  
351.000000	 96.346000  
350.000000	 96.545999  
349.000000	 96.369000  
348.000000	 95.504000  
347.000000	 97.736000  
346.000000	 97.828000  
345.000000	 97.153000  
344.000000	 96.813999  
343.000000	 97.264000  
342.000000	 96.630000  
341.000000	 97.809000  
340.000000	 99.311000  
339.000000	 98.336000  
338.000000	 99.068000  
337.000000	 99.232000  
336.000000	 99.634999  
335.000000	 98.917000  
334.000000	 100.228000 
333.000000	 99.802000  
332.000000	 100.091000 
331.000000	 100.827000 
330.000000	 101.441000 
329.000000	 101.521000 
328.000000	 100.457000 
327.000000	 101.468000 
326.000000	 101.891000 
325.000000	 101.996000 
324.000000	 102.261000 
323.000000	 102.832000 
322.000000	 102.420000 
321.000000	 102.383000 
320.000000	 102.912000 
319.000000	 103.148000 
318.000000	 102.391000 
317.000000	 102.498000 
316.000000	 103.418000 
315.000000	 103.084000 
314.000000	 103.132000 
313.000000	 103.428000 
312.000000	 103.439000 
311.000000	 102.816000 
310.000000	 103.375000 
309.000000	 102.989000 
308.000000	 102.971000 
307.000000	 103.125000 
306.000000	 102.883000 
305.000000	 102.756000 
304.000000	 103.634000 
303.000000	 103.021000 
302.000000	 102.346000 
301.000000	 102.789000 
300.000000	 102.427000 
299.000000	 102.989000 
298.000000	 102.860000 
297.000000	 102.712000 
296.000000	 103.117000 
295.000000	 102.468000 
294.000000	 102.318000 
293.000000	 102.261000 
292.000000	 102.065000 
291.000000	 102.269000 
290.000000	 102.064000 
289.000000	 101.831000 
288.000000	 101.578000 
287.000000	 101.584000 
286.000000	 101.997000 
285.000000	 101.903000 
284.000000	 101.123000 
283.000000	 101.238000 
282.000000	 101.600000 
281.000000	 101.101000 
280.000000	 100.968000 
279.000000	 100.724000 
278.000000	 100.211000 
277.000000	 100.088000 
276.000000	 100.286000 
275.000000	 99.822000  
274.000000	 100.133000 
273.000000	 99.804999  
272.000000	 99.573000  
271.000000	 99.026000  
270.000000	 98.714000  
269.000000	 98.428000  
268.000000	 97.739000  
267.000000	 97.436000  
266.000000	 97.688000  
265.000000	 97.117000  
264.000000	 96.360999  
263.000000	 95.835000  
262.000000	 95.423000  
261.000000	 94.965000  
260.000000	 94.430000  
259.000000	 94.125000  
258.000000	 93.111000  
257.000000	 92.133000  
256.000000	 92.099000  
255.000000	 91.053000  
254.000000	 90.312000  
253.000000	 89.717000  
252.000000	 89.023000  
251.000000	 88.190000  
250.000000	 87.220000  
249.000000	 85.958000  
248.000000	 84.838000  
247.000000	 83.797000  
246.000000	 83.075000  
245.000000	 82.052000  
244.000000	 81.288000  
243.000000	 79.834999  
242.000000	 78.503999  
241.000000	 77.614000  
240.000000	 77.014000  
239.000000	 75.867999  
238.000000	 74.575999  
237.000000	 73.050000  
236.000000	 72.595000  
235.000000	 72.275000  
234.000000	 71.460000  
233.000000	 70.354000  
232.000000	 69.508000  
231.000000	 69.705000  
230.000000	 68.404000  
229.000000	 67.845999  
228.000000	 67.971000  
227.000000	 66.961000  
226.000000	 66.584000  
225.000000	 66.676000  
224.000000	 67.361999  
223.000000	 66.076000  
222.000000	 65.114000  
221.000000	 65.120000  
220.000000	 63.995000  
219.000000	 63.873000  
218.000000	 65.044000  
217.000000	 64.913000  
216.000000	 66.990000  
215.000000	 65.647000  
214.000000	 66.430000  
213.000000	 69.993000  
212.000000	 71.938000  
211.000000	 72.366000  
210.000000	 71.074000  
209.000000	 71.958999  
208.000000	 74.508000  
207.000000	 74.885000  
206.000000	 77.722000  
205.000000	 78.463000  
204.000000	 77.685000  
203.000000	 74.685999  
202.000000	 78.886000  
201.000000	 86.916000  
200.000000	 86.090999  
199.000000	 83.858999  
198.000000	 92.797000  
197.000000	 105.442000 
196.000000	 100.447000 
195.000000	 83.854000  
194.000000	 78.021000  
193.000000	 87.099999  
192.000000	 93.426000  
191.000000	 111.178000 
190.000000	 107.404000 

