PE UV                   SPECTRUM    ASCII       PEDS        1.60        
  -1
S19_06.SP
12/04/05
07:29:18.00
12/04/05
07:34:20.00


190.000000
1









4444

SCAN
1
1


0.0
1920.0
2.00
MANUAL



UV/VIS




































#HDR
-1
-1
#GR
NM
%R
0.00002384185791015625
0.0
1000.000000
1.000000
811
8
129.582000
24.714000
#DATA
1000.000000	57.290000  
999.000000	 57.611000  
998.000000	 57.659000  
997.000000	 57.543000  
996.000000	 56.875000  
995.000000	 56.644000  
994.000000	 56.858000  
993.000000	 57.072999  
992.000000	 57.175000  
991.000000	 56.962000  
990.000000	 57.114000  
989.000000	 57.278000  
988.000000	 57.270000  
987.000000	 56.720000  
986.000000	 56.399000  
985.000000	 56.215000  
984.000000	 56.039000  
983.000000	 56.224000  
982.000000	 56.230999  
981.000000	 56.014000  
980.000000	 56.230999  
979.000000	 56.423000  
978.000000	 56.143000  
977.000000	 56.086000  
976.000000	 55.762000  
975.000000	 55.515000  
974.000000	 55.628000  
973.000000	 55.420000  
972.000000	 55.347000  
971.000000	 55.399000  
970.000000	 55.162000  
969.000000	 55.194000  
968.000000	 55.373000  
967.000000	 55.510000  
966.000000	 55.137000  
965.000000	 54.807000  
964.000000	 55.023000  
963.000000	 54.990000  
962.000000	 54.763000  
961.000000	 54.881000  
960.000000	 54.947000  
959.000000	 54.920000  
958.000000	 54.939000  
957.000000	 54.621000  
956.000000	 54.249000  
955.000000	 54.041000  
954.000000	 54.067000  
953.000000	 54.195000  
952.000000	 54.001000  
951.000000	 53.891000  
950.000000	 53.844000  
949.000000	 53.825999  
948.000000	 53.738000  
947.000000	 53.527000  
946.000000	 53.430000  
945.000000	 53.522000  
944.000000	 53.544000  
943.000000	 53.491000  
942.000000	 53.303000  
941.000000	 53.222000  
940.000000	 53.090000  
939.000000	 53.024000  
938.000000	 53.137000  
937.000000	 52.962000  
936.000000	 53.081000  
935.000000	 53.149000  
934.000000	 52.825999  
933.000000	 52.494000  
932.000000	 52.324000  
931.000000	 52.335000  
930.000000	 52.156000  
929.000000	 52.020999  
928.000000	 52.068000  
927.000000	 52.028000  
926.000000	 52.018000  
925.000000	 51.977000  
924.000000	 52.121000  
923.000000	 51.882000  
922.000000	 51.756000  
921.000000	 51.492000  
920.000000	 51.420000  
919.000000	 51.469000  
918.000000	 51.429000  
917.000000	 51.427000  
916.000000	 51.268000  
915.000000	 51.011000  
914.000000	 50.999000  
913.000000	 51.020000  
912.000000	 51.036000  
911.000000	 50.830000  
910.000000	 50.958000  
909.000000	 51.170000  
908.000000	 50.236000  
907.000000	 50.039000  
906.000000	 49.960000  
905.000000	 50.072000  
904.000000	 50.105000  
903.000000	 50.120000  
902.000000	 49.945000  
901.000000	 50.036000  
900.000000	 50.258000  
899.000000	 49.862000  
898.000000	 49.759000  
897.000000	 49.724000  
896.000000	 49.347000  
895.000000	 49.399000  
894.000000	 49.395000  
893.000000	 49.276000  
892.000000	 49.010000  
891.000000	 49.279000  
890.000000	 49.301000  
889.000000	 49.076000  
888.000000	 49.049000  
887.000000	 48.597000  
886.000000	 48.362000  
885.000000	 48.200000  
884.000000	 47.841000  
883.000000	 47.995000  
882.000000	 48.171000  
881.000000	 48.789000  
880.000000	 48.368000  
879.000000	 48.050000  
878.000000	 48.148000  
877.000000	 47.657000  
876.000000	 47.151000  
875.000000	 48.168000  
874.000000	 47.813000  
873.000000	 47.885000  
872.000000	 47.252000  
871.000000	 47.417000  
870.000000	 47.393000  
869.000000	 47.111000  
868.000000	 46.608000  
867.000000	 46.615000  
866.000000	 46.582000  
865.000000	 46.936000  
864.000000	 47.243000  
863.000000	 46.834000  
862.000000	 46.335000  
861.000000	 46.050999  
860.000000	 46.126000  
859.000000	 45.884000  
858.000000	 46.075000  
857.000000	 46.185000  
856.000000	 46.015000  
855.000000	 45.751000  
854.000000	 45.800999  
853.000000	 45.396000  
852.000000	 45.125000  
851.000000	 45.323000  
850.000000	 45.336000  
849.000000	 45.772000  
848.000000	 45.504000  
847.000000	 45.113000  
846.000000	 45.187000  
845.000000	 45.030000  
844.000000	 44.543000  
843.000000	 44.533000  
842.000000	 44.304000  
841.000000	 44.285999  
840.000000	 44.447000  
839.000000	 44.579000  
838.000000	 44.678000  
837.000000	 44.675000  
836.000000	 44.195000  
835.000000	 43.977000  
834.000000	 43.848000  
833.000000	 43.718000  
832.000000	 43.533000  
831.000000	 43.637000  
830.000000	 43.945000  
829.000000	 43.794000  
828.000000	 43.153000  
827.000000	 43.685000  
826.000000	 43.509000  
825.000000	 43.262000  
824.000000	 43.088000  
823.000000	 43.093000  
822.000000	 42.960000  
821.000000	 42.541000  
820.000000	 42.746000  
819.000000	 42.880000  
818.000000	 42.609000  
817.000000	 42.438000  
816.000000	 42.185000  
815.000000	 42.220000  
814.000000	 42.228000  
813.000000	 41.921000  
812.000000	 41.751000  
811.000000	 41.757000  
810.000000	 41.655000  
809.000000	 41.475000  
808.000000	 41.329000  
807.000000	 41.129000  
806.000000	 41.026000  
805.000000	 41.015000  
804.000000	 41.138000  
803.000000	 41.207000  
802.000000	 40.901000  
801.000000	 40.775000  
800.000000	 40.829000  
799.000000	 40.582000  
798.000000	 40.241000  
797.000000	 40.273000  
796.000000	 39.980000  
795.000000	 40.032000  
794.000000	 40.211000  
793.000000	 39.982000  
792.000000	 39.713000  
791.000000	 39.776000  
790.000000	 39.565000  
789.000000	 39.211000  
788.000000	 39.165000  
787.000000	 39.418000  
786.000000	 39.114000  
785.000000	 39.132000  
784.000000	 39.222000  
783.000000	 38.771000  
782.000000	 38.683000  
781.000000	 38.641000  
780.000000	 38.914000  
779.000000	 38.673000  
778.000000	 38.578000  
777.000000	 38.370000  
776.000000	 38.231000  
775.000000	 38.167000  
774.000000	 38.074000  
773.000000	 37.909000  
772.000000	 37.687000  
771.000000	 37.669999  
770.000000	 37.735000  
769.000000	 37.776000  
768.000000	 37.645000  
767.000000	 37.537000  
766.000000	 37.563000  
765.000000	 37.318000  
764.000000	 37.270000  
763.000000	 37.015000  
762.000000	 36.947000  
761.000000	 36.869000  
760.000000	 36.773000  
759.000000	 36.738000  
758.000000	 36.751000  
757.000000	 36.452000  
756.000000	 36.258000  
755.000000	 36.179000  
754.000000	 36.131000  
753.000000	 36.194000  
752.000000	 36.259000  
751.000000	 35.933000  
750.000000	 35.818000  
749.000000	 35.632000  
748.000000	 35.482000  
747.000000	 35.311000  
746.000000	 35.368000  
745.000000	 35.371000  
744.000000	 35.217000  
743.000000	 34.953000  
742.000000	 34.966000  
741.000000	 34.821000  
740.000000	 34.906000  
739.000000	 34.591000  
738.000000	 34.610000  
737.000000	 34.474000  
736.000000	 34.491000  
735.000000	 34.505000  
734.000000	 34.342000  
733.000000	 34.220000  
732.000000	 34.147000  
731.000000	 33.941000  
730.000000	 33.759000  
729.000000	 33.916000  
728.000000	 33.665000  
727.000000	 33.598000  
726.000000	 33.581000  
725.000000	 33.480000  
724.000000	 33.303000  
723.000000	 33.183000  
722.000000	 33.230000  
721.000000	 33.177000  
720.000000	 32.888000  
719.000000	 32.819000  
718.000000	 32.728000  
717.000000	 32.653000  
716.000000	 32.721000  
715.000000	 32.596000  
714.000000	 32.331000  
713.000000	 32.143000  
712.000000	 32.169000  
711.000000	 32.119000  
710.000000	 32.021000  
709.000000	 31.919000  
708.000000	 31.967000  
707.000000	 31.774000  
706.000000	 31.663000  
705.000000	 31.519000  
704.000000	 31.438000  
703.000000	 31.335000  
702.000000	 31.224000  
701.000000	 31.155000  
700.000000	 31.069000  
699.000000	 30.952000  
698.000000	 30.950000  
697.000000	 30.790000  
696.000000	 30.654000  
695.000000	 30.470000  
694.000000	 30.427000  
693.000000	 30.466000  
692.000000	 30.426000  
691.000000	 30.331000  
690.000000	 30.280000  
689.000000	 30.223000  
688.000000	 30.111000  
687.000000	 29.980000  
686.000000	 29.783000  
685.000000	 29.694000  
684.000000	 29.635000  
683.000000	 29.581000  
682.000000	 29.510000  
681.000000	 29.382000  
680.000000	 29.410000  
679.000000	 29.303000  
678.000000	 29.148000  
677.000000	 29.082000  
676.000000	 28.971000  
675.000000	 28.891000  
674.000000	 28.819000  
673.000000	 28.717000  
672.000000	 28.620000  
671.000000	 28.714000  
670.000000	 28.722000  
669.000000	 28.594000  
668.000000	 28.425000  
667.000000	 28.195000  
666.000000	 28.255000  
665.000000	 28.158000  
664.000000	 27.846000  
663.000000	 27.852000  
662.000000	 27.911000  
661.000000	 27.905000  
660.000000	 27.525000  
659.000000	 27.744000  
658.000000	 27.636000  
657.000000	 27.392000  
656.000000	 27.370000  
655.000000	 27.336000  
654.000000	 27.116000  
653.000000	 27.212000  
652.000000	 27.264000  
651.000000	 27.227000  
650.000000	 27.045000  
649.000000	 27.015000  
648.000000	 26.942000  
647.000000	 26.823000  
646.000000	 26.593000  
645.000000	 26.529000  
644.000000	 26.477000  
643.000000	 26.524000  
642.000000	 26.539000  
641.000000	 26.576000  
640.000000	 26.517000  
639.000000	 26.330000  
638.000000	 26.305000  
637.000000	 26.248000  
636.000000	 26.209000  
635.000000	 26.200000  
634.000000	 26.199000  
633.000000	 26.095000  
632.000000	 26.080000  
631.000000	 25.898000  
630.000000	 25.792000  
629.000000	 25.765000  
628.000000	 25.713000  
627.000000	 25.691000  
626.000000	 25.754000  
625.000000	 25.714000  
624.000000	 25.668000  
623.000000	 25.530000  
622.000000	 25.499000  
621.000000	 25.427000  
620.000000	 25.429000  
619.000000	 25.365000  
618.000000	 25.411000  
617.000000	 25.374000  
616.000000	 25.311000  
615.000000	 25.263000  
614.000000	 25.296000  
613.000000	 25.231000  
612.000000	 25.149000  
611.000000	 25.065000  
610.000000	 25.050000  
609.000000	 25.030000  
608.000000	 25.001000  
607.000000	 25.050000  
606.000000	 25.024000  
605.000000	 24.934000  
604.000000	 24.896000  
603.000000	 24.844000  
602.000000	 24.881000  
601.000000	 24.862000  
600.000000	 24.912000  
599.000000	 24.879000  
598.000000	 24.831000  
597.000000	 24.782000  
596.000000	 24.870000  
595.000000	 24.787000  
594.000000	 24.781000  
593.000000	 24.793000  
592.000000	 24.745000  
591.000000	 24.785000  
590.000000	 24.794000  
589.000000	 24.787000  
588.000000	 24.759000  
587.000000	 24.714000  
586.000000	 24.761000  
585.000000	 24.772000  
584.000000	 24.757000  
583.000000	 24.819000  
582.000000	 24.871000  
581.000000	 24.863000  
580.000000	 24.936000  
579.000000	 24.917000  
578.000000	 24.921000  
577.000000	 24.873000  
576.000000	 24.909000  
575.000000	 24.923000  
574.000000	 25.029000  
573.000000	 25.083000  
572.000000	 25.181000  
571.000000	 25.197000  
570.000000	 25.182000  
569.000000	 25.245000  
568.000000	 25.162000  
567.000000	 25.254000  
566.000000	 25.315000  
565.000000	 25.399000  
564.000000	 25.482000  
563.000000	 25.475000  
562.000000	 25.471000  
561.000000	 25.499000  
560.000000	 25.571000  
559.000000	 25.667000  
558.000000	 25.689000  
557.000000	 25.782000  
556.000000	 25.855000  
555.000000	 25.886000  
554.000000	 25.966000  
553.000000	 26.019000  
552.000000	 26.047000  
551.000000	 26.057000  
550.000000	 26.164000  
549.000000	 26.226000  
548.000000	 26.289000  
547.000000	 26.410000  
546.000000	 26.551000  
545.000000	 26.597000  
544.000000	 26.703000  
543.000000	 26.801000  
542.000000	 26.854000  
541.000000	 26.867000  
540.000000	 27.030000  
539.000000	 27.249000  
538.000000	 27.353000  
537.000000	 27.425000  
536.000000	 27.508000  
535.000000	 27.466000  
534.000000	 27.554000  
533.000000	 27.818000  
532.000000	 27.976000  
531.000000	 28.011000  
530.000000	 28.195000  
529.000000	 28.295000  
528.000000	 28.405000  
527.000000	 28.656000  
526.000000	 28.813000  
525.000000	 28.859000  
524.000000	 29.090000  
523.000000	 29.175000  
522.000000	 29.308000  
521.000000	 29.353000  
520.000000	 29.724000  
519.000000	 29.893000  
518.000000	 30.038000  
517.000000	 30.061000  
516.000000	 30.252000  
515.000000	 30.433000  
514.000000	 30.625000  
513.000000	 30.779000  
512.000000	 31.072000  
511.000000	 31.217000  
510.000000	 31.363000  
509.000000	 31.551000  
508.000000	 31.652000  
507.000000	 31.942000  
506.000000	 32.090999  
505.000000	 32.305000  
504.000000	 32.491000  
503.000000	 32.820000  
502.000000	 33.086000  
501.000000	 33.257000  
500.000000	 33.414000  
499.000000	 33.665000  
498.000000	 33.911000  
497.000000	 34.104000  
496.000000	 34.305000  
495.000000	 34.538000  
494.000000	 34.875000  
493.000000	 35.139000  
492.000000	 35.220000  
491.000000	 35.465999  
490.000000	 35.664000  
489.000000	 35.975000  
488.000000	 36.174000  
487.000000	 36.490000  
486.000000	 36.687000  
485.000000	 36.980000  
484.000000	 37.329000  
483.000000	 37.563000  
482.000000	 37.806000  
481.000000	 38.060000  
480.000000	 38.319000  
479.000000	 38.590000  
478.000000	 39.017000  
477.000000	 39.385000  
476.000000	 39.631000  
475.000000	 39.787000  
474.000000	 40.078000  
473.000000	 40.406000  
472.000000	 40.847000  
471.000000	 41.060000  
470.000000	 41.303000  
469.000000	 41.713000  
468.000000	 42.179000  
467.000000	 42.505000  
466.000000	 42.843000  
465.000000	 43.074000  
464.000000	 43.496000  
463.000000	 43.753000  
462.000000	 44.099000  
461.000000	 44.432000  
460.000000	 44.640000  
459.000000	 45.130000  
458.000000	 45.657000  
457.000000	 46.017000  
456.000000	 46.330000  
455.000000	 46.662000  
454.000000	 47.047000  
453.000000	 47.517000  
452.000000	 47.783000  
451.000000	 48.087999  
450.000000	 48.716000  
449.000000	 48.972000  
448.000000	 49.200000  
447.000000	 49.885000  
446.000000	 50.011000  
445.000000	 50.254000  
444.000000	 50.879000  
443.000000	 51.359999  
442.000000	 51.722000  
441.000000	 52.178999  
440.000000	 52.504000  
439.000000	 53.042999  
438.000000	 53.260000  
437.000000	 53.745000  
436.000000	 54.236000  
435.000000	 54.858000  
434.000000	 55.106999  
433.000000	 55.728000  
432.000000	 56.364000  
431.000000	 56.550000  
430.000000	 56.837000  
429.000000	 57.353000  
428.000000	 57.680000  
427.000000	 58.065000  
426.000000	 58.607000  
425.000000	 59.304000  
424.000000	 59.690000  
423.000000	 60.219000  
422.000000	 60.758000  
421.000000	 61.001000  
420.000000	 61.226000  
419.000000	 61.818000  
418.000000	 62.186000  
417.000000	 62.949000  
416.000000	 63.717000  
415.000000	 64.129000  
414.000000	 64.508000  
413.000000	 64.790000  
412.000000	 65.212999  
411.000000	 65.899000  
410.000000	 66.167000  
409.000000	 66.608000  
408.000000	 67.617999  
407.000000	 67.727000  
406.000000	 68.260000  
405.000000	 69.193000  
404.000000	 69.300000  
403.000000	 69.547000  
402.000000	 70.339000  
401.000000	 70.810000  
400.000000	 72.040000  
399.000000	 71.874000  
398.000000	 72.434000  
397.000000	 72.973000  
396.000000	 73.736999  
395.000000	 74.760000  
394.000000	 74.858000  
393.000000	 74.743000  
392.000000	 75.807999  
391.000000	 76.527000  
390.000000	 77.113000  
389.000000	 77.164000  
388.000000	 78.276000  
387.000000	 78.601000  
386.000000	 78.574000  
385.000000	 79.380000  
384.000000	 80.349000  
383.000000	 80.479999  
382.000000	 80.670000  
381.000000	 80.336000  
380.000000	 81.335000  
379.000000	 82.351000  
378.000000	 83.979000  
377.000000	 84.189000  
376.000000	 84.673000  
375.000000	 85.194999  
374.000000	 86.563000  
373.000000	 87.394000  
372.000000	 87.495000  
371.000000	 88.127000  
370.000000	 88.453999  
369.000000	 88.000000  
368.000000	 87.902000  
367.000000	 89.093000  
366.000000	 89.217000  
365.000000	 89.581000  
364.000000	 90.545000  
363.000000	 90.506000  
362.000000	 90.896000  
361.000000	 91.539000  
360.000000	 91.590999  
359.000000	 92.474000  
358.000000	 92.659000  
357.000000	 92.938000  
356.000000	 92.128000  
355.000000	 92.843000  
354.000000	 93.095000  
353.000000	 93.266000  
352.000000	 93.809000  
351.000000	 94.276000  
350.000000	 95.443999  
349.000000	 95.819000  
348.000000	 94.170000  
347.000000	 94.053000  
346.000000	 95.130000  
345.000000	 95.413000  
344.000000	 96.788000  
343.000000	 96.181000  
342.000000	 97.048000  
341.000000	 95.482000  
340.000000	 95.132000  
339.000000	 97.477000  
338.000000	 97.157000  
337.000000	 97.489999  
336.000000	 96.902999  
335.000000	 97.087000  
334.000000	 97.684000  
333.000000	 98.996000  
332.000000	 98.985000  
331.000000	 97.539000  
330.000000	 97.824000  
329.000000	 99.396000  
328.000000	 99.392000  
327.000000	 99.288000  
326.000000	 99.658999  
325.000000	 99.228000  
324.000000	 99.134000  
323.000000	 99.246000  
322.000000	 99.438000  
321.000000	 99.776000  
320.000000	 100.076000 
319.000000	 99.756000  
318.000000	 99.778000  
317.000000	 100.727000 
316.000000	 100.905000 
315.000000	 100.120000 
314.000000	 100.407000 
313.000000	 100.927000 
312.000000	 99.819999  
311.000000	 100.227000 
310.000000	 99.960000  
309.000000	 100.326000 
308.000000	 100.416000 
307.000000	 100.266000 
306.000000	 100.331000 
305.000000	 101.063000 
304.000000	 101.101000 
303.000000	 100.659000 
302.000000	 100.487000 
301.000000	 100.253000 
300.000000	 99.889000  
299.000000	 99.499000  
298.000000	 99.872000  
297.000000	 100.197000 
296.000000	 100.251000 
295.000000	 99.875000  
294.000000	 99.327000  
293.000000	 98.953000  
292.000000	 98.904000  
291.000000	 98.601000  
290.000000	 99.500999  
289.000000	 99.384000  
288.000000	 99.204000  
287.000000	 99.239999  
286.000000	 98.837000  
285.000000	 98.812000  
284.000000	 98.634999  
283.000000	 98.715000  
282.000000	 98.247000  
281.000000	 98.035000  
280.000000	 98.471000  
279.000000	 98.362000  
278.000000	 98.399000  
277.000000	 98.082000  
276.000000	 97.890999  
275.000000	 98.190000  
274.000000	 97.619000  
273.000000	 97.158000  
272.000000	 96.902999  
271.000000	 96.591000  
270.000000	 96.077000  
269.000000	 95.862000  
268.000000	 95.979000  
267.000000	 95.276000  
266.000000	 95.138000  
265.000000	 94.747000  
264.000000	 93.964000  
263.000000	 93.324000  
262.000000	 92.439000  
261.000000	 92.146000  
260.000000	 91.646000  
259.000000	 91.590000  
258.000000	 90.617999  
257.000000	 89.658000  
256.000000	 89.277000  
255.000000	 88.574000  
254.000000	 87.795000  
253.000000	 87.068000  
252.000000	 86.649000  
251.000000	 85.504000  
250.000000	 84.283000  
249.000000	 82.938999  
248.000000	 82.296000  
247.000000	 81.935999  
246.000000	 81.033999  
245.000000	 79.500000  
244.000000	 77.928000  
243.000000	 76.863000  
242.000000	 75.893999  
241.000000	 75.215000  
240.000000	 74.351999  
239.000000	 73.263000  
238.000000	 72.264000  
237.000000	 71.173000  
236.000000	 70.111000  
235.000000	 69.152000  
234.000000	 68.737000  
233.000000	 67.735000  
232.000000	 66.857999  
231.000000	 66.718999  
230.000000	 66.159000  
229.000000	 65.797000  
228.000000	 66.145000  
227.000000	 65.420000  
226.000000	 64.667000  
225.000000	 64.102000  
224.000000	 64.711000  
223.000000	 63.468999  
222.000000	 63.200999  
221.000000	 62.871999  
220.000000	 62.673000  
219.000000	 62.572000  
218.000000	 62.566000  
217.000000	 63.211000  
216.000000	 63.930000  
215.000000	 63.954000  
214.000000	 64.574000  
213.000000	 64.575000  
212.000000	 66.002000  
211.000000	 67.455000  
210.000000	 69.545999  
209.000000	 67.620000  
208.000000	 68.122000  
207.000000	 74.292000  
206.000000	 72.728000  
205.000000	 71.564000  
204.000000	 76.518000  
203.000000	 79.683000  
202.000000	 75.464000  
201.000000	 81.577000  
200.000000	 91.860000  
199.000000	 86.140000  
198.000000	 82.733999  
197.000000	 80.462000  
196.000000	 85.428000  
195.000000	 76.673999  
194.000000	 79.162000  
193.000000	 94.125000  
192.000000	 107.480000 
191.000000	 129.582000 
190.000000	 99.961000  

