PE UV                   SPECTRUM    ASCII       PEDS        1.60        
  -1
S19_03.SP
12/04/05
07:23:19.00
12/04/05
07:34:21.00


190.000000
1









4444

SCAN
1
1


0.0
1920.0
2.00
MANUAL



UV/VIS




































#HDR
-1
-1
#GR
NM
%R
0.00002384185791015625
0.0
1000.000000
1.000000
811
8
105.269000
25.436000
#DATA
1000.000000	58.138000  
999.000000	 58.672000  
998.000000	 58.489999  
997.000000	 58.369000  
996.000000	 58.867999  
995.000000	 58.175000  
994.000000	 57.735000  
993.000000	 57.487000  
992.000000	 57.599000  
991.000000	 57.393000  
990.000000	 57.257000  
989.000000	 57.746000  
988.000000	 58.026000  
987.000000	 57.947000  
986.000000	 57.506000  
985.000000	 57.703000  
984.000000	 57.440000  
983.000000	 57.199000  
982.000000	 57.276000  
981.000000	 57.267999  
980.000000	 57.221000  
979.000000	 57.327000  
978.000000	 57.371000  
977.000000	 57.157000  
976.000000	 56.546000  
975.000000	 56.949000  
974.000000	 56.764000  
973.000000	 56.187000  
972.000000	 56.515000  
971.000000	 56.792000  
970.000000	 56.492000  
969.000000	 56.238000  
968.000000	 56.405000  
967.000000	 56.015000  
966.000000	 55.733000  
965.000000	 56.107000  
964.000000	 56.509000  
963.000000	 55.770000  
962.000000	 55.964000  
961.000000	 55.854000  
960.000000	 55.954000  
959.000000	 55.656000  
958.000000	 55.521000  
957.000000	 55.230000  
956.000000	 55.502000  
955.000000	 55.550000  
954.000000	 55.522000  
953.000000	 55.416000  
952.000000	 55.217000  
951.000000	 54.990000  
950.000000	 54.795000  
949.000000	 54.710000  
948.000000	 54.478000  
947.000000	 54.742999  
946.000000	 54.824000  
945.000000	 54.661000  
944.000000	 54.534000  
943.000000	 54.563000  
942.000000	 54.213000  
941.000000	 53.941000  
940.000000	 54.020000  
939.000000	 53.842000  
938.000000	 53.801000  
937.000000	 53.837999  
936.000000	 53.508999  
935.000000	 53.565000  
934.000000	 53.564000  
933.000000	 53.410999  
932.000000	 53.222000  
931.000000	 53.197000  
930.000000	 53.386999  
929.000000	 53.148000  
928.000000	 53.130000  
927.000000	 53.097000  
926.000000	 52.829000  
925.000000	 52.673000  
924.000000	 52.886999  
923.000000	 52.531000  
922.000000	 52.473000  
921.000000	 52.391000  
920.000000	 52.245000  
919.000000	 52.215999  
918.000000	 52.145000  
917.000000	 52.076000  
916.000000	 52.154999  
915.000000	 51.871999  
914.000000	 51.710000  
913.000000	 51.749999  
912.000000	 51.578000  
911.000000	 51.612000  
910.000000	 51.448000  
909.000000	 51.312000  
908.000000	 50.853000  
907.000000	 51.098000  
906.000000	 50.787000  
905.000000	 50.905000  
904.000000	 51.176000  
903.000000	 51.034000  
902.000000	 50.600000  
901.000000	 50.368000  
900.000000	 50.232000  
899.000000	 50.580000  
898.000000	 50.595000  
897.000000	 50.454000  
896.000000	 50.166000  
895.000000	 50.202000  
894.000000	 50.249999  
893.000000	 50.191000  
892.000000	 50.248000  
891.000000	 50.229000  
890.000000	 50.304000  
889.000000	 50.404000  
888.000000	 50.532000  
887.000000	 50.532999  
886.000000	 49.921000  
885.000000	 49.734000  
884.000000	 50.391000  
883.000000	 49.984000  
882.000000	 49.809000  
881.000000	 49.480000  
880.000000	 49.434000  
879.000000	 49.399000  
878.000000	 48.538000  
877.000000	 48.860000  
876.000000	 48.913000  
875.000000	 48.538000  
874.000000	 49.263000  
873.000000	 49.036000  
872.000000	 47.497000  
871.000000	 47.815000  
870.000000	 48.371000  
869.000000	 48.207000  
868.000000	 47.463000  
867.000000	 47.517000  
866.000000	 47.917000  
865.000000	 48.027000  
864.000000	 48.096000  
863.000000	 47.728000  
862.000000	 47.949000  
861.000000	 46.991000  
860.000000	 46.967000  
859.000000	 47.414000  
858.000000	 47.096000  
857.000000	 47.017000  
856.000000	 47.452000  
855.000000	 47.195000  
854.000000	 46.615000  
853.000000	 46.350000  
852.000000	 46.248000  
851.000000	 45.652000  
850.000000	 45.795000  
849.000000	 46.198000  
848.000000	 46.075000  
847.000000	 46.039000  
846.000000	 46.346000  
845.000000	 46.334000  
844.000000	 45.630000  
843.000000	 44.895000  
842.000000	 44.948000  
841.000000	 45.123000  
840.000000	 45.165000  
839.000000	 44.892000  
838.000000	 44.603000  
837.000000	 44.829000  
836.000000	 45.238000  
835.000000	 45.034000  
834.000000	 44.390000  
833.000000	 44.041999  
832.000000	 44.129000  
831.000000	 44.305000  
830.000000	 44.051000  
829.000000	 44.236000  
828.000000	 44.454000  
827.000000	 44.311000  
826.000000	 43.990000  
825.000000	 43.720000  
824.000000	 43.694000  
823.000000	 43.733000  
822.000000	 43.857000  
821.000000	 43.583000  
820.000000	 43.425000  
819.000000	 43.361000  
818.000000	 43.135000  
817.000000	 42.931000  
816.000000	 43.015000  
815.000000	 42.860000  
814.000000	 42.949000  
813.000000	 42.845000  
812.000000	 42.394000  
811.000000	 42.558000  
810.000000	 42.505000  
809.000000	 42.564000  
808.000000	 42.574000  
807.000000	 42.172000  
806.000000	 42.122000  
805.000000	 41.997000  
804.000000	 42.068000  
803.000000	 42.138000  
802.000000	 42.071000  
801.000000	 41.725000  
800.000000	 41.801000  
799.000000	 41.789000  
798.000000	 41.567000  
797.000000	 41.492000  
796.000000	 41.774000  
795.000000	 41.417000  
794.000000	 41.441000  
793.000000	 41.362000  
792.000000	 41.292000  
791.000000	 41.003000  
790.000000	 40.712000  
789.000000	 40.608000  
788.000000	 40.959000  
787.000000	 40.652000  
786.000000	 40.385000  
785.000000	 40.342000  
784.000000	 40.245000  
783.000000	 40.210000  
782.000000	 40.125000  
781.000000	 40.096000  
780.000000	 39.635000  
779.000000	 39.761000  
778.000000	 39.829000  
777.000000	 39.660000  
776.000000	 39.496000  
775.000000	 39.182000  
774.000000	 39.048000  
773.000000	 38.945000  
772.000000	 38.890000  
771.000000	 38.647000  
770.000000	 38.388000  
769.000000	 38.399000  
768.000000	 38.382000  
767.000000	 38.277000  
766.000000	 38.128000  
765.000000	 38.122000  
764.000000	 37.980000  
763.000000	 37.815000  
762.000000	 37.762000  
761.000000	 37.798000  
760.000000	 37.824000  
759.000000	 37.588000  
758.000000	 37.407000  
757.000000	 37.150000  
756.000000	 37.260000  
755.000000	 37.253000  
754.000000	 37.094000  
753.000000	 36.889000  
752.000000	 36.945000  
751.000000	 36.801000  
750.000000	 36.555000  
749.000000	 36.410000  
748.000000	 36.364000  
747.000000	 36.186000  
746.000000	 36.061000  
745.000000	 36.033000  
744.000000	 36.013000  
743.000000	 35.875000  
742.000000	 35.670000  
741.000000	 35.795000  
740.000000	 35.638000  
739.000000	 35.413000  
738.000000	 35.485000  
737.000000	 35.413000  
736.000000	 35.168000  
735.000000	 35.188000  
734.000000	 35.141000  
733.000000	 35.016000  
732.000000	 34.920000  
731.000000	 34.846000  
730.000000	 34.686000  
729.000000	 34.582000  
728.000000	 34.451000  
727.000000	 34.372000  
726.000000	 34.251000  
725.000000	 34.094000  
724.000000	 34.184000  
723.000000	 33.994000  
722.000000	 33.785000  
721.000000	 33.749000  
720.000000	 33.630000  
719.000000	 33.533000  
718.000000	 33.448000  
717.000000	 33.385000  
716.000000	 33.245000  
715.000000	 33.098000  
714.000000	 32.975000  
713.000000	 32.811000  
712.000000	 32.742000  
711.000000	 32.647000  
710.000000	 32.550000  
709.000000	 32.535000  
708.000000	 32.372000  
707.000000	 32.458000  
706.000000	 32.377000  
705.000000	 32.293000  
704.000000	 32.182000  
703.000000	 32.037000  
702.000000	 31.911000  
701.000000	 31.813000  
700.000000	 31.835000  
699.000000	 31.878000  
698.000000	 31.638000  
697.000000	 31.576000  
696.000000	 31.377000  
695.000000	 31.223000  
694.000000	 31.026000  
693.000000	 31.082000  
692.000000	 30.980000  
691.000000	 31.012000  
690.000000	 30.921000  
689.000000	 30.772000  
688.000000	 30.741000  
687.000000	 30.612000  
686.000000	 30.467000  
685.000000	 30.371000  
684.000000	 30.247000  
683.000000	 30.246000  
682.000000	 30.349000  
681.000000	 30.262000  
680.000000	 30.086000  
679.000000	 29.927000  
678.000000	 29.818000  
677.000000	 29.630000  
676.000000	 29.604000  
675.000000	 29.671000  
674.000000	 29.677000  
673.000000	 29.547000  
672.000000	 29.372000  
671.000000	 29.271000  
670.000000	 29.363000  
669.000000	 29.305000  
668.000000	 29.173000  
667.000000	 29.181000  
666.000000	 29.091000  
665.000000	 28.907000  
664.000000	 28.756000  
663.000000	 28.539000  
662.000000	 28.525000  
661.000000	 28.642000  
660.000000	 28.613000  
659.000000	 28.543000  
658.000000	 28.402000  
657.000000	 28.242000  
656.000000	 28.166000  
655.000000	 28.092000  
654.000000	 27.884000  
653.000000	 27.976000  
652.000000	 28.033000  
651.000000	 27.781000  
650.000000	 27.770000  
649.000000	 27.816000  
648.000000	 27.700000  
647.000000	 27.519000  
646.000000	 27.463000  
645.000000	 27.277000  
644.000000	 27.305000  
643.000000	 27.411000  
642.000000	 27.307000  
641.000000	 27.326000  
640.000000	 27.156000  
639.000000	 27.076000  
638.000000	 26.926000  
637.000000	 26.848000  
636.000000	 26.967000  
635.000000	 26.944000  
634.000000	 26.827000  
633.000000	 26.874000  
632.000000	 26.850000  
631.000000	 26.552000  
630.000000	 26.386000  
629.000000	 26.418000  
628.000000	 26.437000  
627.000000	 26.375000  
626.000000	 26.390000  
625.000000	 26.459000  
624.000000	 26.339000  
623.000000	 26.291000  
622.000000	 26.269000  
621.000000	 26.167000  
620.000000	 26.125000  
619.000000	 26.048000  
618.000000	 26.055000  
617.000000	 26.028000  
616.000000	 26.124000  
615.000000	 25.968000  
614.000000	 26.015000  
613.000000	 25.843000  
612.000000	 25.741000  
611.000000	 25.772000  
610.000000	 25.848000  
609.000000	 25.875000  
608.000000	 25.898000  
607.000000	 25.761000  
606.000000	 25.739000  
605.000000	 25.645000  
604.000000	 25.656000  
603.000000	 25.662000  
602.000000	 25.563000  
601.000000	 25.636000  
600.000000	 25.755000  
599.000000	 25.626000  
598.000000	 25.652000  
597.000000	 25.569000  
596.000000	 25.472000  
595.000000	 25.489000  
594.000000	 25.502000  
593.000000	 25.437000  
592.000000	 25.436000  
591.000000	 25.550000  
590.000000	 25.633000  
589.000000	 25.608000  
588.000000	 25.460000  
587.000000	 25.505000  
586.000000	 25.541000  
585.000000	 25.602000  
584.000000	 25.619000  
583.000000	 25.505000  
582.000000	 25.617000  
581.000000	 25.619000  
580.000000	 25.608000  
579.000000	 25.630000  
578.000000	 25.624000  
577.000000	 25.642000  
576.000000	 25.676000  
575.000000	 25.706000  
574.000000	 25.652000  
573.000000	 25.749000  
572.000000	 25.653000  
571.000000	 25.726000  
570.000000	 25.884000  
569.000000	 25.933000  
568.000000	 25.802000  
567.000000	 25.883000  
566.000000	 25.921000  
565.000000	 26.044000  
564.000000	 26.017000  
563.000000	 26.110000  
562.000000	 26.164000  
561.000000	 26.194000  
560.000000	 26.286000  
559.000000	 26.319000  
558.000000	 26.476000  
557.000000	 26.605000  
556.000000	 26.755000  
555.000000	 26.907000  
554.000000	 27.030000  
553.000000	 27.080000  
552.000000	 27.189000  
551.000000	 27.295000  
550.000000	 27.382000  
549.000000	 27.455000  
548.000000	 27.528000  
547.000000	 27.588000  
546.000000	 27.613000  
545.000000	 27.670000  
544.000000	 27.702000  
543.000000	 27.748000  
542.000000	 27.860000  
541.000000	 27.973000  
540.000000	 28.148000  
539.000000	 28.221000  
538.000000	 28.294000  
537.000000	 28.342000  
536.000000	 28.569000  
535.000000	 28.656000  
534.000000	 28.785000  
533.000000	 28.860000  
532.000000	 28.917000  
531.000000	 29.131000  
530.000000	 29.319000  
529.000000	 29.491000  
528.000000	 29.545000  
527.000000	 29.676000  
526.000000	 29.765000  
525.000000	 30.006000  
524.000000	 30.050000  
523.000000	 30.326000  
522.000000	 30.426000  
521.000000	 30.774000  
520.000000	 30.846000  
519.000000	 30.918000  
518.000000	 31.061000  
517.000000	 31.311000  
516.000000	 31.373000  
515.000000	 31.484000  
514.000000	 31.762000  
513.000000	 31.955000  
512.000000	 32.067000  
511.000000	 32.247000  
510.000000	 32.446000  
509.000000	 32.663000  
508.000000	 32.801000  
507.000000	 32.941000  
506.000000	 33.182000  
505.000000	 33.437000  
504.000000	 33.765000  
503.000000	 33.972000  
502.000000	 34.071000  
501.000000	 34.235000  
500.000000	 34.494000  
499.000000	 34.683000  
498.000000	 34.841000  
497.000000	 35.056000  
496.000000	 35.446000  
495.000000	 35.802000  
494.000000	 35.994000  
493.000000	 36.139000  
492.000000	 36.431000  
491.000000	 36.708000  
490.000000	 37.020000  
489.000000	 37.266000  
488.000000	 37.543000  
487.000000	 37.713000  
486.000000	 38.118000  
485.000000	 38.340000  
484.000000	 38.675000  
483.000000	 38.724000  
482.000000	 38.996000  
481.000000	 39.323000  
480.000000	 39.738000  
479.000000	 40.033000  
478.000000	 40.391000  
477.000000	 40.387000  
476.000000	 40.863000  
475.000000	 41.260000  
474.000000	 41.551000  
473.000000	 41.738000  
472.000000	 42.008000  
471.000000	 42.337000  
470.000000	 42.707000  
469.000000	 43.150000  
468.000000	 43.539000  
467.000000	 43.614000  
466.000000	 43.996000  
465.000000	 44.468000  
464.000000	 44.972000  
463.000000	 45.174000  
462.000000	 45.460000  
461.000000	 45.846000  
460.000000	 46.318000  
459.000000	 46.544000  
458.000000	 46.989999  
457.000000	 47.387000  
456.000000	 47.623000  
455.000000	 47.977000  
454.000000	 48.382000  
453.000000	 48.775000  
452.000000	 49.184000  
451.000000	 49.625000  
450.000000	 50.120000  
449.000000	 50.663000  
448.000000	 51.200999  
447.000000	 51.281000  
446.000000	 51.425000  
445.000000	 51.952000  
444.000000	 52.256000  
443.000000	 52.592000  
442.000000	 53.222000  
441.000000	 53.890000  
440.000000	 54.581999  
439.000000	 54.439000  
438.000000	 54.965000  
437.000000	 55.166000  
436.000000	 55.703000  
435.000000	 56.172000  
434.000000	 56.888000  
433.000000	 57.404999  
432.000000	 57.691000  
431.000000	 58.307000  
430.000000	 58.452000  
429.000000	 59.172999  
428.000000	 59.602000  
427.000000	 60.069000  
426.000000	 60.666000  
425.000000	 61.301000  
424.000000	 61.861000  
423.000000	 62.166999  
422.000000	 62.490000  
421.000000	 62.697000  
420.000000	 63.277000  
419.000000	 63.678999  
418.000000	 64.331999  
417.000000	 64.932000  
416.000000	 65.610999  
415.000000	 66.077000  
414.000000	 66.483999  
413.000000	 67.092000  
412.000000	 67.770000  
411.000000	 67.836000  
410.000000	 68.537000  
409.000000	 69.455999  
408.000000	 69.982999  
407.000000	 70.257000  
406.000000	 70.664000  
405.000000	 71.143999  
404.000000	 71.787000  
403.000000	 72.387000  
402.000000	 72.828000  
401.000000	 72.956000  
400.000000	 73.968000  
399.000000	 74.583999  
398.000000	 75.266000  
397.000000	 75.932999  
396.000000	 77.155000  
395.000000	 76.885000  
394.000000	 77.333000  
393.000000	 78.058000  
392.000000	 78.020000  
391.000000	 78.802000  
390.000000	 79.540000  
389.000000	 79.951000  
388.000000	 80.088000  
387.000000	 81.114000  
386.000000	 81.859000  
385.000000	 82.349999  
384.000000	 83.012000  
383.000000	 83.666000  
382.000000	 84.378000  
381.000000	 84.906000  
380.000000	 86.694999  
379.000000	 87.262000  
378.000000	 87.479000  
377.000000	 87.402999  
376.000000	 87.907000  
375.000000	 88.568000  
374.000000	 89.519000  
373.000000	 89.625000  
372.000000	 89.738000  
371.000000	 90.589000  
370.000000	 91.337999  
369.000000	 92.822999  
368.000000	 93.268000  
367.000000	 92.467000  
366.000000	 92.867999  
365.000000	 93.792000  
364.000000	 93.902000  
363.000000	 93.443000  
362.000000	 94.713000  
361.000000	 94.446000  
360.000000	 93.567000  
359.000000	 94.737000  
358.000000	 95.891000  
357.000000	 96.261000  
356.000000	 96.648000  
355.000000	 96.099000  
354.000000	 96.894000  
353.000000	 97.331999  
352.000000	 97.286000  
351.000000	 97.752000  
350.000000	 98.758000  
349.000000	 98.728000  
348.000000	 97.898000  
347.000000	 98.428000  
346.000000	 99.682000  
345.000000	 99.172000  
344.000000	 100.966000 
343.000000	 100.124000 
342.000000	 100.281000 
341.000000	 101.374000 
340.000000	 100.079000 
339.000000	 99.495000  
338.000000	 100.667000 
337.000000	 101.125000 
336.000000	 101.119000 
335.000000	 101.993000 
334.000000	 100.917000 
333.000000	 101.640000 
332.000000	 102.128000 
331.000000	 102.730000 
330.000000	 103.156000 
329.000000	 103.184000 
328.000000	 103.369000 
327.000000	 103.294000 
326.000000	 102.704000 
325.000000	 102.637000 
324.000000	 102.761000 
323.000000	 103.237000 
322.000000	 103.807000 
321.000000	 103.673000 
320.000000	 103.715000 
319.000000	 103.496000 
318.000000	 103.369000 
317.000000	 103.524000 
316.000000	 103.290000 
315.000000	 103.489000 
314.000000	 103.937000 
313.000000	 104.032000 
312.000000	 103.694000 
311.000000	 104.427000 
310.000000	 104.353000 
309.000000	 103.983000 
308.000000	 103.608000 
307.000000	 104.316000 
306.000000	 104.017000 
305.000000	 104.288000 
304.000000	 105.093000 
303.000000	 104.469000 
302.000000	 104.113000 
301.000000	 103.503000 
300.000000	 103.234000 
299.000000	 103.159000 
298.000000	 103.177000 
297.000000	 102.573000 
296.000000	 103.019000 
295.000000	 103.296000 
294.000000	 102.698000 
293.000000	 102.779000 
292.000000	 102.618000 
291.000000	 102.492000 
290.000000	 102.536000 
289.000000	 102.354000 
288.000000	 102.423000 
287.000000	 102.361000 
286.000000	 102.056000 
285.000000	 101.817000 
284.000000	 101.983000 
283.000000	 102.535000 
282.000000	 102.677000 
281.000000	 102.507000 
280.000000	 102.672000 
279.000000	 102.007000 
278.000000	 101.455000 
277.000000	 101.571000 
276.000000	 101.399000 
275.000000	 101.402000 
274.000000	 100.997000 
273.000000	 100.636000 
272.000000	 100.633000 
271.000000	 100.725000 
270.000000	 100.052000 
269.000000	 99.548000  
268.000000	 99.399000  
267.000000	 98.943000  
266.000000	 98.929999  
265.000000	 98.363999  
264.000000	 97.419000  
263.000000	 96.988000  
262.000000	 96.882000  
261.000000	 95.703999  
260.000000	 95.161000  
259.000000	 94.809000  
258.000000	 94.167999  
257.000000	 93.364000  
256.000000	 93.039000  
255.000000	 92.156000  
254.000000	 90.822999  
253.000000	 90.444000  
252.000000	 89.791000  
251.000000	 88.639000  
250.000000	 87.746000  
249.000000	 87.144000  
248.000000	 85.995000  
247.000000	 84.944000  
246.000000	 83.906000  
245.000000	 83.359000  
244.000000	 81.959999  
243.000000	 80.471999  
242.000000	 79.844000  
241.000000	 78.656000  
240.000000	 77.227000  
239.000000	 75.908000  
238.000000	 74.536999  
237.000000	 74.018000  
236.000000	 73.197000  
235.000000	 72.489999  
234.000000	 71.470000  
233.000000	 70.311000  
232.000000	 69.581999  
231.000000	 69.682000  
230.000000	 68.938999  
229.000000	 68.701000  
228.000000	 68.081000  
227.000000	 67.820000  
226.000000	 67.530999  
225.000000	 66.810000  
224.000000	 65.105000  
223.000000	 65.229000  
222.000000	 65.270000  
221.000000	 65.765000  
220.000000	 65.437000  
219.000000	 65.571000  
218.000000	 64.831000  
217.000000	 65.454000  
216.000000	 65.852000  
215.000000	 66.646000  
214.000000	 67.249000  
213.000000	 66.881999  
212.000000	 66.438000  
211.000000	 69.440000  
210.000000	 72.450999  
209.000000	 71.787000  
208.000000	 74.252000  
207.000000	 74.944999  
206.000000	 78.089000  
205.000000	 81.160000  
204.000000	 78.124000  
203.000000	 78.944999  
202.000000	 82.021000  
201.000000	 87.060000  
200.000000	 85.283000  
199.000000	 93.018999  
198.000000	 95.555000  
197.000000	 95.307000  
196.000000	 105.269000 
195.000000	 86.543000  
194.000000	 84.568000  
193.000000	 86.609000  
192.000000	 75.500000  
191.000000	 56.441000  
190.000000	 59.889000  

