## SPECTRUM TYPE:
Spectroscopic

## DATE:
1/30/2012

## COMMENTS:

## NUMBER OF SPECTRUM:
5

## ELLIPSOMETRIC CONFIGURATION:
0.00 ø :Modulator
-45.00 øAnalyser

## UNIT:
eV


# SPECTRUM:
1

# START TIME:
10:37:04

# END TIME:
10:48:25

# THETA ANGLE:
0.00 ø

# INCIDENCE ANGLE:
55.00 ø

# ACCUMULATION NUMBER:
1

# ELLIPSOMETRIC CONFIGURATION:
0.00 ø :Modulator
-45.00 øAnalyser

# INTEGRATION TIME:
500 ms

# FIRST POINT:
0.6000 eV

# LAST POINT:
6.5000 eV

# INCREMENT:
0.0250 eV

# NUMBER OF POINTS:
237

# DATA:
eV Hv S0 Psi Delta Is Ic 
0.600 1200.2 65.593 35.114 167.162 -0.20909 0.91752 
0.625 1098.6 76.698 39.241 167.206 -0.21699 0.95553 
0.650 997.0 68.351 43.331 166.873 -0.22672 0.97222 
0.675 997.0 65.683 34.448 166.102 -0.22409 0.90561 
0.700 895.4 64.199 36.322 165.891 -0.23267 0.92568 
0.725 895.4 74.577 40.420 165.806 -0.24208 0.95711 
0.750 895.4 76.485 41.692 165.481 -0.24903 0.96162 
0.775 793.8 70.234 40.023 165.036 -0.25432 0.95154 
0.800 501.7 62.941 39.165 164.638 -0.25944 0.94434 
0.825 698.5 62.252 43.905 164.518 -0.26675 0.96301 
0.850 800.1 79.756 38.271 163.926 -0.26928 0.93452 
0.875 501.7 64.413 41.609 163.895 -0.27546 0.95403 
0.900 603.3 67.112 38.005 163.246 -0.27971 0.92914 
0.925 704.9 71.819 38.613 162.992 -0.28526 0.93260 
0.950 704.9 63.433 38.157 162.566 -0.29109 0.92698 
0.975 508.0 63.008 37.701 162.103 -0.29739 0.92089 
1.000 704.9 62.409 37.944 161.856 -0.30202 0.92159 
1.025 704.9 65.228 39.768 161.603 -0.31035 0.93312 
1.050 508.0 84.011 37.918 161.159 -0.31312 0.91765 
1.075 704.9 61.289 37.971 160.828 -0.31857 0.91624 
1.100 704.9 67.198 38.526 160.524 -0.32494 0.91881 
1.125 704.9 66.775 39.329 160.300 -0.33052 0.92309 
1.150 616.0 61.451 37.791 159.772 -0.33487 0.90877 
1.175 616.0 65.566 38.595 159.545 -0.34077 0.91363 
1.200 717.6 68.869 37.442 159.064 -0.34496 0.90166 
1.225 520.7 71.384 39.097 158.981 -0.35109 0.91371 
1.250 336.6 61.525 37.417 158.600 -0.35216 0.89863 
1.275 635.0 80.503 38.341 158.335 -0.35924 0.90437 
1.300 539.8 60.769 37.928 157.963 -0.36382 0.89884 
1.325 736.6 69.165 38.097 157.692 -0.36862 0.89843 
1.350 438.2 65.543 38.220 157.370 -0.37406 0.89728 
1.375 838.2 76.383 37.666 157.087 -0.37664 0.89108 
1.400 552.5 61.607 38.124 156.836 -0.38209 0.89303 
1.425 1352.6 72.078 37.900 156.558 -0.38566 0.88943 
1.450 2254.3 63.931 37.635 156.256 -0.38942 0.88527 
1.475 615.0 82.838 36.868 155.871 -0.39242 0.87610 
1.500 452.0 64.440 37.489 155.746 -0.39674 0.88057 
1.525 553.0 76.187 37.652 155.399 -0.40268 0.87949 
1.550 499.0 70.705 37.670 155.240 -0.40518 0.87851 
1.575 535.0 65.695 36.958 154.887 -0.40779 0.87003 
1.600 535.0 73.900 36.850 154.633 -0.41119 0.86726 
1.625 491.0 72.417 36.794 154.338 -0.41542 0.86464 
1.650 491.0 63.449 37.299 154.202 -0.41957 0.86800 
1.675 491.0 75.125 36.614 153.809 -0.42258 0.85916 
1.700 477.0 68.591 36.654 153.591 -0.42604 0.85790 
1.725 468.0 68.950 36.489 153.306 -0.42954 0.85428 
1.750 468.0 77.113 36.569 153.200 -0.43149 0.85420 
1.775 454.0 70.230 36.334 152.884 -0.43510 0.84967 
1.800 439.0 70.463 36.516 152.727 -0.43829 0.85014 
1.825 439.0 74.509 36.121 152.470 -0.44018 0.84451 
1.850 429.0 69.310 36.111 152.216 -0.44388 0.84246 
1.875 429.0 74.464 35.925 152.007 -0.44601 0.83907 
1.900 419.0 70.700 35.765 151.797 -0.44825 0.83588 
1.925 419.0 75.746 35.798 151.608 -0.45118 0.83472 
1.950 410.0 70.114 35.722 151.420 -0.45352 0.83250 
1.975 410.0 76.893 35.526 151.141 -0.45650 0.82835 
2.000 401.0 69.515 35.735 151.064 -0.45875 0.82980 
2.025 401.0 70.702 35.544 150.822 -0.46121 0.82597 
2.050 401.0 68.871 35.434 150.642 -0.46319 0.82343 
2.075 393.0 70.220 35.237 150.411 -0.46537 0.81958 
2.100 393.0 73.104 35.176 150.197 -0.46809 0.81721 
2.125 393.0 75.324 35.092 150.003 -0.47035 0.81476 
2.150 393.0 76.748 35.063 149.778 -0.47337 0.81262 
2.175 393.0 78.011 34.978 149.600 -0.47538 0.81028 
2.200 393.0 79.216 34.856 149.373 -0.47785 0.80712 
2.225 386.0 70.773 34.741 149.131 -0.48052 0.80390 
2.250 386.0 71.825 34.702 148.929 -0.48311 0.80178 
2.275 386.0 72.297 34.623 148.700 -0.48581 0.79901 
2.300 386.0 72.003 34.512 148.462 -0.48841 0.79581 
2.325 386.0 72.172 34.473 148.265 -0.49088 0.79371 
2.350 386.0 72.169 34.312 148.034 -0.49300 0.79001 
2.375 386.0 72.412 34.139 147.817 -0.49480 0.78626 
2.400 386.0 72.426 33.945 147.642 -0.49585 0.78260 
2.425 386.0 74.432 33.768 147.518 -0.49628 0.77955 
2.450 377.0 70.240 33.520 147.437 -0.49559 0.77602 
2.475 377.0 68.926 33.313 147.446 -0.49393 0.77371 
2.500 362.0 71.181 32.779 147.559 -0.48835 0.76831 
2.525 362.0 71.307 32.768 147.770 -0.48543 0.76997 
2.550 362.0 69.642 32.469 147.893 -0.48146 0.76731 
2.575 362.0 73.968 32.415 148.117 -0.47804 0.76851 
2.600 362.0 67.921 32.516 148.288 -0.47652 0.77120 
2.625 355.0 70.218 32.549 148.402 -0.47524 0.77257 
2.650 355.0 73.693 32.290 148.410 -0.47311 0.76935 
2.675 355.0 63.189 32.441 148.490 -0.47322 0.77193 
2.700 364.0 68.692 32.251 148.453 -0.47223 0.76920 
2.725 364.0 63.478 32.594 148.562 -0.47343 0.77445 
2.750 364.0 66.209 32.546 148.508 -0.47379 0.77340 
2.775 374.0 69.196 32.400 148.458 -0.47334 0.77114 
2.800 374.0 67.536 32.323 148.358 -0.47407 0.76934 
2.825 374.0 66.448 32.472 148.368 -0.47511 0.77131 
2.850 374.0 62.399 32.507 148.306 -0.47622 0.77123 
2.875 374.0 59.985 32.433 148.246 -0.47644 0.76981 
2.900 383.0 68.898 32.372 148.166 -0.47703 0.76837 
2.925 383.0 67.247 32.333 148.070 -0.47802 0.76708 
2.950 383.0 66.373 32.522 148.089 -0.47924 0.76961 
2.975 383.0 62.057 32.359 148.004 -0.47910 0.76685 
3.000 383.0 59.381 32.273 147.962 -0.47899 0.76541 
3.025 393.0 68.372 32.347 147.870 -0.48080 0.76557 
3.050 393.0 64.689 32.173 147.773 -0.48071 0.76255 
3.075 393.0 61.598 32.087 147.743 -0.48042 0.76120 
3.100 393.0 77.357 32.053 147.704 -0.48066 0.76043 
3.125 393.0 74.372 32.125 147.693 -0.48139 0.76127 
3.150 393.0 69.229 32.053 147.677 -0.48102 0.76021 
3.175 393.0 64.701 31.901 147.638 -0.48027 0.75791 
3.200 393.0 60.352 31.881 147.695 -0.47936 0.75814 
3.225 402.0 67.569 31.675 147.695 -0.47765 0.75542 
3.250 402.0 63.526 31.660 147.801 -0.47612 0.75610 
3.275 411.0 69.213 31.661 147.987 -0.47368 0.75767 
3.300 411.0 63.457 31.531 148.180 -0.47004 0.75751 
3.325 422.0 69.285 31.377 148.452 -0.46517 0.75765 
3.350 422.0 64.419 31.577 148.861 -0.46138 0.76366 
3.375 422.0 63.465 31.636 149.186 -0.45751 0.76706 
3.400 422.0 62.547 31.605 149.482 -0.45330 0.76900 
3.425 422.0 60.513 31.812 149.772 -0.45103 0.77409 
3.450 431.0 67.829 31.927 149.957 -0.44941 0.77707 
3.475 431.0 64.625 31.950 150.076 -0.44798 0.77830 
3.500 431.0 61.358 32.176 150.155 -0.44863 0.78191 
3.525 442.0 69.613 32.337 150.242 -0.44863 0.78470 
3.550 442.0 66.373 32.468 150.279 -0.44910 0.78668 
3.575 442.0 63.339 32.643 150.354 -0.44933 0.78950 
3.600 442.0 60.973 32.650 150.301 -0.45011 0.78917 
3.625 451.0 68.164 32.897 150.303 -0.45186 0.79227 
3.650 451.0 65.806 33.053 150.293 -0.45309 0.79414 
3.675 451.0 64.213 33.290 150.246 -0.45539 0.79664 
3.700 451.0 62.712 33.483 150.174 -0.45771 0.79837 
3.725 451.0 61.450 33.590 149.988 -0.46104 0.79814 
3.750 451.0 59.025 33.976 149.893 -0.46493 0.80183 
3.775 463.0 69.238 34.044 149.637 -0.46896 0.80050 
3.800 463.0 65.861 34.131 149.326 -0.47388 0.79892 
3.825 463.0 61.737 34.385 149.054 -0.47933 0.79945 
3.850 473.0 67.134 34.490 148.767 -0.48401 0.79817 
3.875 473.0 61.270 34.775 148.405 -0.49089 0.79809 
3.900 486.0 68.358 35.081 148.048 -0.49781 0.79813 
3.925 486.0 63.056 35.194 147.486 -0.50633 0.79434 
3.950 497.0 69.336 35.411 147.010 -0.51427 0.79222 
3.975 497.0 64.863 35.428 146.480 -0.52169 0.78758 
4.000 497.0 60.507 35.620 146.090 -0.52825 0.78582 
4.025 511.0 70.210 35.715 145.432 -0.53784 0.78058 
4.050 511.0 66.817 35.744 144.813 -0.54643 0.77499 
4.075 511.0 62.726 35.791 144.190 -0.55512 0.76943 
4.100 511.0 59.097 35.965 143.562 -0.56466 0.76482 
4.125 524.0 67.561 36.092 142.979 -0.57323 0.76013 
4.150 524.0 64.420 36.113 142.186 -0.58383 0.75229 
4.175 524.0 61.936 36.285 141.508 -0.59383 0.74676 
4.200 524.0 60.621 36.297 140.736 -0.60391 0.73879 
4.225 535.0 69.308 36.364 139.936 -0.61461 0.73081 
4.250 535.0 67.404 36.435 139.087 -0.62586 0.72218 
4.275 535.0 65.430 36.343 138.313 -0.63493 0.71295 
4.300 508.0 71.392 35.631 137.163 -0.64387 0.69443 
4.325 508.0 76.505 35.471 136.404 -0.65178 0.68452 
4.350 499.0 69.931 35.592 135.817 -0.65971 0.67879 
4.375 499.0 73.106 34.973 135.101 -0.66306 0.66541 
4.400 499.0 74.953 34.958 134.733 -0.66720 0.66100 
4.425 499.0 76.497 35.054 134.373 -0.67215 0.65759 
4.450 499.0 78.008 34.872 133.979 -0.67509 0.65145 
4.475 499.0 78.956 34.549 133.520 -0.67742 0.64329 
4.500 499.0 79.046 34.672 133.285 -0.68116 0.64156 
4.525 499.0 77.926 34.543 132.910 -0.68418 0.63599 
4.550 499.0 77.239 34.376 132.526 -0.68687 0.62997 
4.575 499.0 75.469 34.491 132.346 -0.68992 0.62879 
4.600 499.0 73.874 34.350 131.919 -0.69327 0.62244 
4.625 499.0 71.449 34.042 131.565 -0.69413 0.61553 
4.650 499.0 69.430 34.188 131.275 -0.69865 0.61325 
4.675 499.0 67.464 33.982 130.884 -0.70080 0.60672 
4.700 499.0 64.287 33.750 130.500 -0.70252 0.60001 
4.725 499.0 62.320 33.463 130.159 -0.70311 0.59331 
4.750 499.0 59.223 33.694 129.977 -0.70739 0.59310 
4.775 510.0 67.017 33.526 129.703 -0.70848 0.58825 
4.800 510.0 64.155 33.609 129.346 -0.71300 0.58453 
4.825 510.0 60.922 33.339 129.047 -0.71317 0.57849 
4.850 525.0 71.253 33.408 128.893 -0.71547 0.57716 
4.875 525.0 67.898 33.576 128.560 -0.72060 0.57443 
4.900 525.0 64.393 33.018 127.840 -0.72164 0.56058 
4.925 525.0 62.007 33.017 127.827 -0.72177 0.56041 
4.950 525.0 58.816 33.145 127.613 -0.72528 0.55881 
4.975 541.0 69.672 32.990 127.342 -0.72618 0.55404 
5.000 541.0 66.483 32.820 126.975 -0.72778 0.54792 
5.025 541.0 62.049 32.467 126.466 -0.72847 0.53836 
5.050 553.0 69.438 32.631 126.550 -0.72962 0.54088 
5.075 553.0 65.541 32.344 126.107 -0.73035 0.53272 
5.100 553.0 61.582 32.527 126.088 -0.73272 0.53408 
5.125 568.0 69.842 32.408 125.773 -0.73422 0.52901 
5.150 568.0 64.827 32.034 125.369 -0.73334 0.52057 
5.175 568.0 60.355 32.238 125.478 -0.73486 0.52375 
5.200 586.0 70.882 32.269 125.329 -0.73661 0.52210 
5.225 586.0 66.472 31.945 124.783 -0.73751 0.51225 
5.250 586.0 61.020 31.694 124.350 -0.73814 0.50447 
5.275 600.0 67.504 31.712 124.369 -0.73822 0.50487 
5.300 600.0 62.876 31.400 123.791 -0.73917 0.49466 
5.325 612.0 67.348 31.213 123.433 -0.73974 0.48839 
5.350 612.0 62.816 31.199 123.394 -0.73988 0.48774 
5.375 624.0 67.501 31.111 123.248 -0.73993 0.48508 
5.400 624.0 62.742 31.088 123.316 -0.73904 0.48576 
5.425 637.0 68.016 30.933 122.811 -0.74116 0.47785 
5.450 637.0 63.440 30.827 122.872 -0.73919 0.47769 
5.475 650.0 67.982 30.732 122.507 -0.74088 0.47211 
5.500 650.0 63.210 30.494 122.200 -0.74001 0.46602 
5.525 663.0 67.200 30.302 121.988 -0.73896 0.46154 
5.550 663.0 61.903 30.198 121.804 -0.73891 0.45822 
5.575 663.0 56.538 30.131 121.721 -0.73859 0.45653 
5.600 683.0 64.894 29.906 121.516 -0.73688 0.45184 
5.625 683.0 58.964 29.626 121.090 -0.73597 0.44380 
5.650 704.0 66.955 29.781 121.562 -0.73464 0.45128 
5.675 719.0 71.785 29.258 120.440 -0.73524 0.43205 
5.700 719.0 65.131 29.495 121.362 -0.73186 0.44606 
5.725 737.0 70.250 29.191 120.785 -0.73157 0.43584 
5.750 737.0 64.048 29.290 120.741 -0.73346 0.43620 
5.775 737.0 57.351 29.273 121.256 -0.72925 0.44263 
5.800 760.0 64.448 28.751 120.366 -0.72771 0.42636 
5.825 778.0 68.991 28.749 120.018 -0.73025 0.42192 
5.850 780.0 62.827 28.479 120.486 -0.72239 0.42528 
5.875 780.0 56.141 28.258 120.698 -0.71717 0.42579 
5.900 780.0 49.406 28.447 120.445 -0.72216 0.42444 
5.925 780.0 43.876 28.094 120.087 -0.71892 0.41652 
5.950 780.0 38.961 27.807 119.975 -0.71487 0.41232 
5.975 780.0 34.249 27.358 119.601 -0.70976 0.40321 
6.000 780.0 30.848 27.385 119.885 -0.70823 0.40700 
6.025 780.0 27.368 27.233 119.535 -0.70803 0.40116 
6.050 780.0 24.366 26.902 119.749 -0.70063 0.40043 
6.075 780.0 21.915 26.747 120.013 -0.69602 0.40205 
6.100 780.0 19.642 26.816 120.052 -0.69697 0.40325 
6.125 780.0 17.541 26.654 120.414 -0.69152 0.40595 
6.150 780.0 15.892 26.512 121.942 -0.67792 0.42266 
6.175 780.0 14.339 26.132 120.612 -0.68061 0.40271 
6.200 780.0 13.083 25.903 120.190 -0.67932 0.39521 
6.225 780.0 11.914 25.842 119.839 -0.68058 0.39039 
6.250 780.0 10.900 25.442 120.654 -0.66745 0.39558 
6.275 780.0 9.892 25.268 120.955 -0.66206 0.39709 
6.300 780.0 8.908 25.377 121.308 -0.66167 0.40243 
6.325 780.0 7.979 24.794 120.126 -0.65855 0.38215 
6.350 780.0 7.270 25.029 120.837 -0.65830 0.39300 
6.375 780.0 6.517 24.450 121.267 -0.64412 0.39112 
6.400 780.0 5.847 24.600 121.658 -0.64434 0.39731 
6.425 780.0 5.278 23.601 121.674 -0.62447 0.38529 
6.450 780.0 4.631 23.882 119.936 -0.64160 0.36947 
6.475 780.0 4.195 23.451 122.317 -0.61709 0.39036 
6.500 780.0 3.707 22.531 119.604 -0.61547 0.34969 

# MINIMA:
0.600 336.6 3.707 22.531 119.535 -0.74116 0.34969 

# MAXIMA:
6.500 2254.3 84.011 43.905 167.206 -0.20909 0.97222 

# PEAKS:

# END SPECTRUM


# SPECTRUM:
2

# START TIME:
10:49:08

# END TIME:
10:59:32

# THETA ANGLE:
0.00 ø

# INCIDENCE ANGLE:
60.00 ø

# ACCUMULATION NUMBER:
1

# ELLIPSOMETRIC CONFIGURATION:
0.00 ø :Modulator
-45.00 øAnalyser

# INTEGRATION TIME:
500 ms

# FIRST POINT:
0.6000 eV

# LAST POINT:
6.5000 eV

# INCREMENT:
0.0250 eV

# NUMBER OF POINTS:
237

# DATA:
eV Hv S0 Psi Delta Is Ic 
0.600 1098.6 70.615 42.701 164.014 -0.27452 0.95823 
0.625 997.0 75.417 41.399 163.647 -0.27933 0.95197 
0.650 895.4 66.787 45.000 163.522 -0.29134 0.98497 
0.675 895.4 62.123 36.894 162.596 -0.28722 0.91627 
0.700 895.4 75.132 39.330 162.365 -0.29704 0.93440 
0.725 793.8 66.208 37.319 161.533 -0.30545 0.91462 
0.750 793.8 66.629 36.345 161.071 -0.30970 0.90308 
0.775 793.8 77.321 34.956 160.446 -0.31433 0.88501 
0.800 495.3 64.695 40.340 160.551 -0.32857 0.93049 
0.825 692.2 67.655 37.097 159.844 -0.33155 0.90326 
0.850 692.2 63.835 38.603 159.447 -0.34236 0.91310 
0.875 495.3 64.405 38.575 159.188 -0.34640 0.91134 
0.900 596.9 71.836 37.359 158.460 -0.35416 0.89727 
0.925 698.5 75.656 37.452 158.111 -0.35995 0.89589 
0.950 698.5 67.458 38.125 157.735 -0.36803 0.89892 
0.975 501.7 69.156 37.242 157.244 -0.37272 0.88855 
1.000 698.5 67.085 38.665 157.019 -0.38092 0.89822 
1.025 698.5 69.800 36.973 156.306 -0.38618 0.87999 
1.050 425.5 60.968 37.396 155.965 -0.39304 0.88131 
1.075 723.9 72.660 39.297 155.822 -0.40149 0.89426 
1.100 641.4 60.970 37.216 155.063 -0.40616 0.87350 
1.125 730.3 81.842 37.983 154.752 -0.41381 0.87747 
1.150 628.7 70.689 37.046 154.254 -0.41774 0.86624 
1.175 628.7 75.537 37.568 153.921 -0.42490 0.86813 
1.200 730.3 79.552 37.080 153.421 -0.43044 0.86036 
1.225 476.3 62.920 36.910 152.936 -0.43697 0.85522 
1.250 330.2 60.541 36.848 152.550 -0.44244 0.85173 
1.275 609.6 78.834 36.664 152.235 -0.44627 0.84767 
1.300 527.1 62.420 37.011 151.871 -0.45324 0.84782 
1.325 723.9 72.903 36.417 151.344 -0.45818 0.83842 
1.350 425.5 67.315 36.689 151.038 -0.46400 0.83838 
1.375 825.5 82.583 36.443 150.722 -0.46740 0.83364 
1.400 533.4 63.803 36.363 150.388 -0.47183 0.83018 
1.425 1231.9 67.153 36.695 150.066 -0.47819 0.83044 
1.450 1828.8 61.129 36.564 149.703 -0.48277 0.82626 
1.475 780.0 0.000 0.000 0.000 0.00000 0.00000 
1.500 439.0 58.583 35.934 148.894 -0.49096 0.81370 
1.525 540.0 73.801 35.872 148.548 -0.49552 0.81014 
1.550 490.0 72.094 35.683 148.245 -0.49870 0.80573 
1.575 524.0 65.307 35.502 147.823 -0.50354 0.80031 
1.600 524.0 73.622 35.120 147.463 -0.50617 0.79340 
1.625 482.0 70.805 35.154 147.179 -0.51031 0.79123 
1.650 482.0 63.080 35.300 146.852 -0.51576 0.78972 
1.675 482.0 74.766 35.073 146.472 -0.51951 0.78407 
1.700 470.0 70.707 34.923 146.102 -0.52357 0.77921 
1.725 459.0 68.432 34.966 145.932 -0.52618 0.77808 
1.750 459.0 76.588 34.800 145.627 -0.52917 0.77361 
1.775 446.0 70.262 34.615 145.215 -0.53342 0.76793 
1.800 432.0 70.232 34.631 144.977 -0.53672 0.76587 
1.825 432.0 74.782 34.541 144.705 -0.53971 0.76239 
1.850 423.0 70.137 34.268 144.342 -0.54252 0.75616 
1.875 423.0 74.807 34.179 144.037 -0.54587 0.75234 
1.900 412.0 69.255 34.028 143.728 -0.54876 0.74781 
1.925 412.0 74.629 34.007 143.496 -0.55161 0.74536 
1.950 403.0 69.291 33.945 143.237 -0.55449 0.74220 
1.975 403.0 74.577 33.808 143.008 -0.55636 0.73854 
2.000 396.0 69.882 33.748 142.698 -0.55988 0.73488 
2.025 396.0 71.132 33.629 142.402 -0.56268 0.73071 
2.050 396.0 69.530 33.466 142.114 -0.56499 0.72613 
2.075 387.0 69.431 33.512 141.893 -0.56818 0.72443 
2.100 387.0 72.597 33.222 141.546 -0.57006 0.71785 
2.125 387.0 74.754 33.150 141.239 -0.57327 0.71400 
2.150 387.0 76.019 33.113 141.013 -0.57577 0.71133 
2.175 387.0 77.546 33.039 140.740 -0.57848 0.70777 
2.200 387.0 78.918 32.944 140.457 -0.58111 0.70386 
2.225 379.0 68.959 32.774 140.103 -0.58387 0.69839 
2.250 379.0 69.920 32.664 139.787 -0.58670 0.69393 
2.275 379.0 70.585 32.518 139.424 -0.58968 0.68859 
2.300 379.0 70.411 32.452 139.140 -0.59246 0.68492 
2.325 379.0 70.830 32.345 138.838 -0.59501 0.68058 
2.350 379.0 71.013 32.181 138.511 -0.59726 0.67533 
2.375 379.0 71.122 32.017 138.242 -0.59875 0.67066 
2.400 379.0 71.149 31.785 137.936 -0.59994 0.66480 
2.425 379.0 73.307 31.554 137.755 -0.59959 0.66022 
2.450 371.0 70.465 31.303 137.617 -0.59849 0.65583 
2.475 371.0 69.488 31.036 137.604 -0.59572 0.65249 
2.500 358.0 71.064 30.537 137.713 -0.58890 0.64748 
2.525 358.0 70.910 30.462 137.944 -0.58544 0.64892 
2.550 358.0 69.335 30.180 138.036 -0.58117 0.64628 
2.575 358.0 73.414 30.098 138.306 -0.57718 0.64794 
2.600 358.0 67.561 30.083 138.419 -0.57572 0.64888 
2.625 350.0 68.572 30.037 138.549 -0.57372 0.64959 
2.650 350.0 71.111 29.961 138.584 -0.57244 0.64894 
2.675 350.0 61.413 30.017 138.631 -0.57255 0.65015 
2.700 360.0 68.564 29.981 138.659 -0.57183 0.64995 
2.725 360.0 63.709 30.032 138.611 -0.57295 0.65014 
2.750 360.0 66.110 30.059 138.607 -0.57332 0.65046 
2.775 370.0 69.615 29.935 138.564 -0.57237 0.64839 
2.800 370.0 67.903 29.983 138.463 -0.57406 0.64802 
2.825 370.0 66.693 29.914 138.351 -0.57453 0.64599 
2.850 370.0 62.686 29.943 138.230 -0.57622 0.64516 
2.875 370.0 60.566 29.840 138.150 -0.57592 0.64301 
2.900 379.0 70.120 29.874 138.082 -0.57708 0.64277 
2.925 379.0 68.118 29.790 137.913 -0.57799 0.63997 
2.950 379.0 67.133 29.845 137.860 -0.57923 0.64016 
2.975 379.0 62.872 29.815 137.764 -0.57994 0.63879 
3.000 379.0 60.415 29.672 137.599 -0.58008 0.63524 
3.025 388.0 68.194 29.687 137.538 -0.58093 0.63482 
3.050 388.0 64.443 29.667 137.458 -0.58158 0.63374 
3.075 388.0 61.448 29.512 137.321 -0.58122 0.63031 
3.100 388.0 77.036 29.579 137.349 -0.58172 0.63148 
3.125 388.0 73.969 29.446 137.179 -0.58197 0.62801 
3.150 388.0 69.179 29.355 137.129 -0.58139 0.62629 
3.175 388.0 64.788 29.251 137.030 -0.58118 0.62390 
3.200 388.0 60.450 29.161 136.984 -0.58055 0.62223 
3.225 398.0 68.902 29.027 136.986 -0.57885 0.62044 
3.250 398.0 65.017 28.958 137.059 -0.57720 0.62025 
3.275 398.0 60.509 28.836 137.173 -0.57442 0.61973 
3.300 410.0 68.818 28.701 137.283 -0.57151 0.61897 
3.325 410.0 61.743 28.687 137.642 -0.56745 0.62236 
3.350 420.0 68.576 28.609 137.937 -0.56325 0.62417 
3.375 420.0 67.989 28.692 138.484 -0.55830 0.63069 
3.400 420.0 66.750 28.648 138.738 -0.55496 0.63254 
3.425 420.0 64.740 28.765 139.140 -0.55194 0.63808 
3.450 420.0 62.084 28.842 139.379 -0.55021 0.64146 
3.475 429.0 69.132 28.856 139.537 -0.54861 0.64317 
3.500 429.0 65.418 29.080 139.786 -0.54849 0.64873 
3.525 429.0 61.729 29.182 139.965 -0.54767 0.65188 
3.550 429.0 58.997 29.249 140.085 -0.54709 0.65397 
3.575 441.0 68.790 29.457 140.227 -0.54788 0.65822 
3.600 441.0 65.921 29.561 140.348 -0.54767 0.66080 
3.625 441.0 63.557 29.690 140.393 -0.54863 0.66302 
3.650 441.0 61.592 29.898 140.538 -0.54928 0.66724 
3.675 441.0 59.902 30.079 140.604 -0.55052 0.67031 
3.700 450.0 67.771 30.284 140.530 -0.55363 0.67232 
3.725 450.0 66.097 30.501 140.610 -0.55504 0.67596 
3.750 450.0 63.974 30.736 140.522 -0.55859 0.67816 
3.775 450.0 61.364 30.980 140.485 -0.56159 0.68091 
3.800 460.0 68.307 31.184 140.301 -0.56589 0.68166 
3.825 460.0 64.187 31.406 140.146 -0.57003 0.68286 
3.850 470.0 69.960 31.571 139.943 -0.57413 0.68284 
3.875 470.0 63.992 31.814 139.656 -0.58001 0.68285 
3.900 480.0 68.320 32.145 139.380 -0.58658 0.68390 
3.925 480.0 62.970 32.294 139.035 -0.59216 0.68205 
3.950 491.0 69.263 32.543 138.592 -0.59987 0.68023 
3.975 491.0 64.815 32.754 138.220 -0.60632 0.67862 
4.000 491.0 60.548 32.916 137.740 -0.61355 0.67524 
4.025 503.0 68.085 33.239 137.296 -0.62186 0.67381 
4.050 503.0 64.345 33.444 136.764 -0.63002 0.67006 
4.075 503.0 61.009 33.543 136.197 -0.63756 0.66477 
4.100 515.0 68.508 33.750 135.512 -0.64742 0.65909 
4.125 515.0 64.503 34.094 134.937 -0.65720 0.65576 
4.150 515.0 61.468 34.225 134.180 -0.66703 0.64821 
4.175 525.0 68.542 34.509 133.432 -0.67804 0.64191 
4.200 525.0 67.172 34.675 132.529 -0.68959 0.63253 
4.225 525.0 65.856 34.869 131.624 -0.70126 0.62314 
4.250 525.0 64.808 34.980 130.610 -0.71320 0.61150 
4.275 525.0 62.756 35.079 129.582 -0.72495 0.59936 
4.300 502.0 70.458 35.116 128.342 -0.73810 0.58379 
4.325 502.0 75.264 35.022 127.221 -0.74850 0.56857 
4.350 493.0 69.616 34.814 126.194 -0.75654 0.55359 
4.375 493.0 72.821 34.661 125.204 -0.76447 0.53935 
4.400 493.0 75.677 34.266 124.395 -0.76792 0.52570 
4.425 493.0 77.696 33.978 123.487 -0.77305 0.51141 
4.450 493.0 78.901 34.045 123.190 -0.77642 0.50788 
4.475 483.0 68.959 33.903 122.542 -0.78054 0.49805 
4.500 483.0 69.260 33.615 121.979 -0.78213 0.48834 
4.525 483.0 69.196 33.675 121.522 -0.78669 0.48251 
4.550 483.0 68.409 33.385 120.946 -0.78812 0.47253 
4.575 483.0 67.120 33.492 120.769 -0.79084 0.47086 
4.600 483.0 65.899 33.296 120.275 -0.79254 0.46266 
4.625 483.0 64.327 33.338 120.016 -0.79513 0.45937 
4.650 483.0 62.741 33.101 119.489 -0.79644 0.45040 
4.675 483.0 60.895 33.044 119.061 -0.79908 0.44404 
4.700 493.0 67.919 33.078 118.724 -0.80210 0.43958 
4.725 493.0 65.557 33.065 118.536 -0.80337 0.43686 
4.750 493.0 62.984 32.692 117.945 -0.80312 0.42603 
4.775 503.0 69.844 32.709 117.550 -0.80625 0.42060 
4.800 503.0 66.493 32.686 117.112 -0.80915 0.41427 
4.825 503.0 63.489 32.377 116.718 -0.80790 0.40666 
4.850 513.0 70.118 32.364 116.280 -0.81082 0.40038 
4.875 513.0 66.732 32.382 115.899 -0.81372 0.39510 
4.900 513.0 62.858 32.321 115.509 -0.81556 0.38916 
4.925 513.0 60.328 32.022 115.064 -0.81446 0.38090 
4.950 526.0 69.208 32.098 114.829 -0.81707 0.37804 
4.975 526.0 65.843 32.038 114.608 -0.81769 0.37450 
5.000 526.0 62.545 31.793 114.031 -0.81798 0.36472 
5.025 526.0 59.529 31.710 113.743 -0.81862 0.36007 
5.050 540.0 68.283 31.638 113.365 -0.81994 0.35422 
5.075 540.0 64.272 31.529 113.053 -0.82027 0.34908 
5.100 540.0 60.351 31.362 112.628 -0.82040 0.34198 
5.125 555.0 68.951 31.465 112.537 -0.82244 0.34129 
5.150 555.0 64.352 31.228 112.139 -0.82129 0.33414 
5.175 555.0 59.353 31.117 111.727 -0.82200 0.32756 
5.200 569.0 66.810 31.120 111.464 -0.82354 0.32381 
5.225 569.0 61.909 31.069 111.210 -0.82419 0.31985 
5.250 583.0 69.308 30.942 110.941 -0.82373 0.31523 
5.275 583.0 64.245 30.790 110.396 -0.82434 0.30651 
5.300 583.0 59.525 30.715 110.310 -0.82363 0.30484 
5.325 598.0 67.644 30.530 109.870 -0.82302 0.29744 
5.350 598.0 62.155 30.430 109.559 -0.82303 0.29240 
5.375 610.0 67.629 30.323 109.226 -0.82300 0.28702 
5.400 610.0 62.529 30.194 108.929 -0.82238 0.28203 
5.425 624.0 69.054 30.125 108.499 -0.82334 0.27547 
5.450 624.0 64.253 30.087 108.682 -0.82183 0.27789 
5.475 624.0 59.285 29.972 108.222 -0.82213 0.27066 
5.500 641.0 67.093 29.875 108.027 -0.82143 0.26732 
5.525 641.0 62.049 29.807 107.620 -0.82217 0.26112 
5.550 655.0 67.138 29.640 107.552 -0.81964 0.25926 
5.575 655.0 61.391 29.449 107.274 -0.81763 0.25426 
5.600 673.0 68.899 29.257 106.950 -0.81572 0.24861 
5.625 673.0 62.829 29.165 106.586 -0.81566 0.24295 
5.650 690.0 68.994 28.933 106.213 -0.81313 0.23644 
5.675 690.0 63.050 28.903 106.290 -0.81227 0.23738 
5.700 704.0 66.578 28.850 106.172 -0.81182 0.23542 
5.725 704.0 60.275 28.542 106.261 -0.80589 0.23506 
5.750 727.0 69.995 28.488 105.939 -0.80621 0.23024 
5.775 727.0 62.558 28.446 105.373 -0.80767 0.22206 
5.800 747.0 68.387 28.325 105.153 -0.80628 0.21834 
5.825 767.0 74.243 28.067 104.244 -0.80482 0.20431 
5.850 767.0 67.226 27.807 104.498 -0.79897 0.20660 
5.875 780.0 67.817 27.668 104.589 -0.79598 0.20717 
5.900 780.0 59.668 27.461 103.789 -0.79479 0.19506 
5.925 780.0 52.415 27.332 104.215 -0.79079 0.20033 
5.950 780.0 46.421 26.976 104.127 -0.78407 0.19734 
5.975 780.0 41.077 27.135 104.828 -0.78474 0.20774 
6.000 780.0 36.481 26.817 104.350 -0.78012 0.19957 
6.025 780.0 32.365 26.882 104.408 -0.78123 0.20070 
6.050 780.0 29.104 26.508 104.267 -0.77417 0.19686 
6.075 780.0 26.224 26.385 103.971 -0.77267 0.19223 
6.100 780.0 23.563 26.706 103.826 -0.77969 0.19189 
6.125 780.0 20.973 25.986 102.336 -0.76953 0.16829 
6.150 780.0 18.983 26.044 104.213 -0.76481 0.19371 
6.175 780.0 17.172 25.739 104.855 -0.75622 0.20058 
6.200 780.0 15.516 25.599 105.409 -0.75130 0.20707 
6.225 780.0 14.100 25.241 105.006 -0.74511 0.19974 
6.250 780.0 12.860 25.781 105.098 -0.75624 0.20402 
6.275 780.0 11.725 25.511 102.514 -0.75892 0.16844 
6.300 780.0 10.533 25.078 103.994 -0.74501 0.18567 
6.325 780.0 9.592 25.279 104.412 -0.74797 0.19221 
6.350 780.0 8.626 24.715 103.998 -0.73706 0.18374 
6.375 780.0 7.765 25.039 103.679 -0.74517 0.18137 
6.400 780.0 6.942 24.438 105.225 -0.72686 0.19782 
6.425 780.0 6.133 24.264 104.195 -0.72640 0.18374 
6.450 780.0 5.544 23.603 105.406 -0.70743 0.19494 
6.475 780.0 4.877 24.114 105.734 -0.71786 0.20224 
6.500 780.0 4.388 24.691 104.698 -0.73422 0.19260 

# MINIMA:
0.600 330.2 0.000 0.000 0.000 -0.82434 0.00000 

# MAXIMA:
6.500 1828.8 82.583 45.000 164.014 0.00000 0.98497 

# PEAKS:

# END SPECTRUM


# SPECTRUM:
3

# START TIME:
11:00:16

# END TIME:
11:10:33

# THETA ANGLE:
0.00 ø

# INCIDENCE ANGLE:
65.00 ø

# ACCUMULATION NUMBER:
1

# ELLIPSOMETRIC CONFIGURATION:
0.00 ø :Modulator
-45.00 øAnalyser

# INTEGRATION TIME:
500 ms

# FIRST POINT:
0.6000 eV

# LAST POINT:
6.5000 eV

# INCREMENT:
0.0250 eV

# NUMBER OF POINTS:
237

# DATA:
eV Hv S0 Psi Delta Is Ic 
0.600 1003.3 66.143 38.654 159.157 -0.34711 0.91172 
0.625 901.7 70.830 37.439 158.735 -0.35012 0.89964 
0.650 901.7 78.500 36.706 157.963 -0.35958 0.88837 
0.675 901.7 71.983 37.169 157.440 -0.36940 0.88919 
0.700 800.1 67.235 37.404 157.047 -0.37635 0.88865 
0.725 800.1 76.261 37.858 156.407 -0.38786 0.88808 
0.750 800.1 76.253 35.497 155.533 -0.39159 0.86058 
0.775 698.5 64.119 37.387 155.263 -0.40377 0.87636 
0.800 501.7 74.570 38.598 154.784 -0.41543 0.88221 
0.825 698.5 73.183 37.868 154.118 -0.42307 0.87196 
0.850 698.5 68.297 36.524 153.397 -0.42834 0.85529 
0.875 501.7 69.982 37.997 153.144 -0.43833 0.86562 
0.900 603.3 76.155 36.262 152.225 -0.44449 0.84395 
0.925 704.9 78.646 36.933 151.892 -0.45259 0.84732 
0.950 704.9 69.718 38.265 151.512 -0.46385 0.85474 
0.975 508.0 72.054 36.305 150.631 -0.46802 0.83164 
1.000 704.9 70.473 36.567 150.170 -0.47604 0.83019 
1.025 704.9 73.473 35.834 149.515 -0.48158 0.81803 
1.050 425.5 61.614 35.603 148.843 -0.48980 0.81012 
1.075 723.9 74.402 37.492 148.799 -0.50036 0.82615 
1.100 635.0 60.964 35.933 147.890 -0.50514 0.80496 
1.125 635.0 60.184 36.699 147.593 -0.51359 0.80907 
1.150 635.0 74.195 35.819 146.830 -0.51927 0.79443 
1.175 635.0 77.867 35.608 146.238 -0.52614 0.78708 
1.200 736.6 82.465 35.311 145.662 -0.53211 0.77895 
1.225 476.3 63.820 35.671 145.237 -0.54022 0.77834 
1.250 323.9 60.362 35.458 144.816 -0.54454 0.77239 
1.275 622.3 82.276 35.319 144.157 -0.55246 0.76478 
1.300 527.1 62.234 35.472 143.724 -0.55925 0.76200 
1.325 723.9 73.287 35.227 143.199 -0.56452 0.75457 
1.350 425.5 67.831 35.032 142.714 -0.56949 0.74794 
1.375 825.5 82.781 34.846 142.238 -0.57432 0.74142 
1.400 527.1 63.758 34.973 141.809 -0.58080 0.73830 
1.425 1225.6 67.255 34.512 141.156 -0.58563 0.72724 
1.450 1822.5 62.195 34.837 140.862 -0.59189 0.72733 
1.475 780.0 0.000 0.000 0.000 0.00000 0.00000 
1.500 437.0 55.809 33.857 139.778 -0.59751 0.70652 
1.525 539.0 72.378 33.990 139.398 -0.60333 0.70387 
1.550 492.0 73.009 33.947 138.877 -0.60934 0.69792 
1.575 527.0 67.181 33.604 138.445 -0.61154 0.68989 
1.600 527.0 75.488 33.716 138.149 -0.61610 0.68785 
1.625 484.0 72.427 33.517 137.720 -0.61943 0.68122 
1.650 484.0 64.372 33.399 137.245 -0.62395 0.67488 
1.675 484.0 76.031 33.377 136.817 -0.62877 0.66997 
1.700 471.0 70.844 33.144 136.343 -0.63206 0.66241 
1.725 462.0 70.577 32.963 135.862 -0.63582 0.65524 
1.750 454.0 69.280 32.877 135.533 -0.63871 0.65071 
1.775 454.0 79.348 32.904 135.221 -0.64251 0.64748 
1.800 433.0 70.621 32.678 134.706 -0.64599 0.63940 
1.825 433.0 75.093 32.510 134.240 -0.64941 0.63240 
1.850 425.0 71.770 32.390 133.902 -0.65185 0.62733 
1.875 425.0 76.756 32.308 133.552 -0.65478 0.62249 
1.900 413.0 69.955 32.185 133.109 -0.65822 0.61616 
1.925 413.0 75.342 32.119 132.791 -0.66090 0.61180 
1.950 404.0 69.301 31.926 132.378 -0.66311 0.60504 
1.975 404.0 75.193 31.876 132.092 -0.66555 0.60120 
2.000 396.0 69.356 31.786 131.664 -0.66899 0.59529 
2.025 396.0 70.928 31.662 131.308 -0.67122 0.58983 
2.050 396.0 69.348 31.555 130.927 -0.67386 0.58426 
2.075 388.0 70.451 31.412 130.506 -0.67641 0.57783 
2.100 388.0 73.373 31.314 130.161 -0.67867 0.57274 
2.125 388.0 75.475 31.213 129.745 -0.68156 0.56674 
2.150 388.0 77.504 31.157 129.426 -0.68400 0.56237 
2.175 388.0 78.832 31.064 129.040 -0.68660 0.55679 
2.200 381.0 70.023 30.861 128.605 -0.68821 0.54948 
2.225 381.0 71.566 30.804 128.179 -0.69153 0.54376 
2.250 381.0 72.556 30.664 127.750 -0.69374 0.53715 
2.275 381.0 73.589 30.575 127.337 -0.69640 0.53123 
2.300 381.0 73.471 30.455 126.872 -0.69907 0.52435 
2.325 381.0 74.164 30.297 126.443 -0.70080 0.51748 
2.350 381.0 74.529 30.126 126.003 -0.70238 0.51037 
2.375 381.0 74.857 29.919 125.609 -0.70293 0.50341 
2.400 381.0 75.255 29.695 125.213 -0.70317 0.49627 
2.425 381.0 77.471 29.413 124.889 -0.70181 0.48939 
2.450 370.0 70.550 29.132 124.577 -0.70025 0.48266 
2.475 370.0 69.422 28.836 124.444 -0.69685 0.47794 
2.500 361.0 70.799 28.396 124.643 -0.68835 0.47563 
2.525 361.0 70.944 28.268 124.856 -0.68456 0.47678 
2.550 361.0 69.247 27.989 124.878 -0.67994 0.47395 
2.575 361.0 73.148 27.912 125.172 -0.67627 0.47656 
2.600 361.0 68.105 27.861 125.250 -0.67480 0.47690 
2.625 353.0 69.216 27.754 125.321 -0.67249 0.47652 
2.650 353.0 71.666 27.726 125.442 -0.67103 0.47763 
2.675 353.0 62.094 27.598 125.285 -0.67026 0.47431 
2.700 362.0 67.805 27.526 125.235 -0.66950 0.47290 
2.725 362.0 62.867 27.677 125.343 -0.67106 0.47589 
2.750 362.0 65.462 27.611 125.277 -0.67055 0.47436 
2.775 372.0 69.182 27.611 125.197 -0.67121 0.47343 
2.800 372.0 67.600 27.587 125.074 -0.67183 0.47171 
2.825 372.0 66.313 27.541 124.902 -0.67248 0.46916 
2.850 372.0 62.410 27.490 124.670 -0.67354 0.46586 
2.875 372.0 60.001 27.451 124.528 -0.67405 0.46374 
2.900 380.0 68.319 27.460 124.407 -0.67518 0.46243 
2.925 380.0 66.901 27.378 124.248 -0.67509 0.45962 
2.950 380.0 65.698 27.380 124.063 -0.67661 0.45747 
2.975 380.0 61.834 27.255 123.827 -0.67638 0.45327 
3.000 388.0 69.345 27.320 123.833 -0.67743 0.45407 
3.025 388.0 66.014 27.213 123.584 -0.67760 0.44992 
3.050 388.0 62.452 27.167 123.367 -0.67850 0.44683 
3.075 397.0 70.050 27.160 123.316 -0.67879 0.44616 
3.100 385.0 70.699 27.092 123.172 -0.67874 0.44369 
3.125 385.0 68.029 26.998 122.929 -0.67901 0.43975 
3.150 385.0 63.584 26.929 122.815 -0.67869 0.43765 
3.175 393.0 68.524 26.813 122.675 -0.67775 0.43469 
3.200 393.0 64.451 26.716 122.571 -0.67684 0.43237 
3.225 393.0 60.909 26.538 122.395 -0.67502 0.42830 
3.250 403.0 69.354 26.512 122.523 -0.67361 0.42951 
3.275 403.0 64.377 26.326 122.414 -0.67111 0.42612 
3.300 412.0 69.135 26.174 122.481 -0.66788 0.42518 
3.325 412.0 61.816 25.991 122.648 -0.66333 0.42501 
3.350 421.0 67.832 25.975 123.103 -0.65966 0.43008 
3.375 421.0 67.302 25.833 123.390 -0.65493 0.43168 
3.400 421.0 66.151 25.858 123.848 -0.65191 0.43721 
3.425 421.0 64.248 25.850 124.164 -0.64936 0.44070 
3.450 421.0 61.522 25.911 124.581 -0.64721 0.44616 
3.475 421.0 58.535 26.007 124.887 -0.64651 0.45079 
3.500 434.0 69.254 26.036 125.096 -0.64538 0.45351 
3.525 434.0 65.865 26.156 125.315 -0.64573 0.45746 
3.550 434.0 62.715 26.200 125.595 -0.64426 0.46115 
3.575 434.0 59.678 26.304 125.769 -0.64465 0.46440 
3.600 444.0 67.989 26.366 125.952 -0.64422 0.46722 
3.625 444.0 65.439 26.502 126.195 -0.64454 0.47165 
3.650 444.0 63.372 26.669 126.430 -0.64541 0.47636 
3.675 444.0 61.755 26.841 126.624 -0.64667 0.48068 
3.700 444.0 59.980 27.054 126.919 -0.64767 0.48662 
3.725 454.0 68.868 27.189 126.899 -0.65005 0.48806 
3.750 454.0 66.655 27.469 127.051 -0.65326 0.49319 
3.775 454.0 64.296 27.670 127.124 -0.65583 0.49644 
3.800 454.0 60.574 27.895 127.097 -0.65962 0.49882 
3.825 465.0 68.176 28.121 127.167 -0.66253 0.50228 
3.850 465.0 62.962 28.385 127.155 -0.66667 0.50520 
3.875 476.0 68.398 28.621 126.985 -0.67176 0.50594 
3.900 476.0 62.624 28.882 126.829 -0.67705 0.50703 
3.925 488.0 69.532 29.159 126.712 -0.68218 0.50871 
3.950 488.0 64.476 29.408 126.425 -0.68837 0.50797 
3.975 488.0 60.331 29.681 126.221 -0.69412 0.50842 
4.000 501.0 68.652 30.004 125.947 -0.70115 0.50842 
4.025 501.0 64.621 30.244 125.612 -0.70749 0.50674 
4.050 501.0 61.052 30.547 125.114 -0.71609 0.50355 
4.075 511.0 67.105 30.916 124.779 -0.72408 0.50285 
4.100 511.0 62.695 31.176 124.192 -0.73271 0.49780 
4.125 511.0 59.552 31.410 123.646 -0.74055 0.49288 
4.150 523.0 67.423 31.817 123.149 -0.75016 0.48994 
4.175 523.0 65.341 32.159 122.485 -0.76020 0.48401 
4.200 523.0 63.885 32.490 121.687 -0.77108 0.47598 
4.225 523.0 62.597 32.852 120.876 -0.78226 0.46773 
4.250 523.0 61.751 33.125 119.804 -0.79425 0.45495 
4.275 523.0 59.965 33.443 118.791 -0.80604 0.44295 
4.300 506.0 69.352 33.453 117.273 -0.81760 0.42151 
4.325 506.0 73.654 33.597 115.982 -0.82866 0.40384 
4.350 506.0 78.117 33.536 114.616 -0.83729 0.38363 
4.375 496.0 70.608 33.676 113.490 -0.84641 0.36785 
4.400 496.0 73.684 33.438 112.270 -0.85106 0.34852 
4.425 496.0 76.164 33.443 111.431 -0.85614 0.33605 
4.450 496.0 77.698 33.308 110.351 -0.86057 0.31920 
4.475 496.0 79.666 33.212 109.471 -0.86412 0.30551 
4.500 487.0 69.911 33.221 108.922 -0.86712 0.29726 
4.525 487.0 70.590 33.081 108.135 -0.86926 0.28470 
4.550 487.0 70.752 32.804 107.329 -0.86940 0.27127 
4.575 487.0 70.085 32.849 107.026 -0.87145 0.26685 
4.600 487.0 69.103 32.527 106.112 -0.87110 0.25162 
4.625 487.0 67.532 32.531 105.846 -0.87231 0.24760 
4.650 487.0 66.107 32.431 105.305 -0.87318 0.23896 
4.675 487.0 63.749 32.360 104.819 -0.87416 0.23128 
4.700 487.0 61.677 32.248 104.274 -0.87468 0.22253 
4.725 487.0 60.187 32.120 103.921 -0.87416 0.21668 
4.750 498.0 68.074 32.113 103.449 -0.87582 0.20944 
4.775 498.0 65.621 31.976 103.047 -0.87524 0.20283 
4.800 498.0 62.672 31.938 102.477 -0.87664 0.19397 
4.825 509.0 71.088 31.849 102.125 -0.87647 0.18831 
4.850 509.0 66.759 31.721 101.558 -0.87635 0.17922 
4.875 509.0 63.868 31.837 101.237 -0.87911 0.17466 
4.900 509.0 60.756 31.632 100.663 -0.87766 0.16525 
4.925 522.0 70.253 31.602 100.186 -0.87854 0.15786 
4.950 522.0 67.106 31.456 99.762 -0.87741 0.15096 
4.975 522.0 64.595 31.432 99.340 -0.87813 0.14444 
5.000 522.0 60.753 31.342 98.957 -0.87765 0.13832 
5.025 535.0 69.177 31.253 98.622 -0.87704 0.13298 
5.050 535.0 65.603 31.253 98.359 -0.87764 0.12895 
5.075 535.0 61.462 31.153 98.077 -0.87666 0.12440 
5.100 546.0 67.440 31.034 97.490 -0.87596 0.11517 
5.125 546.0 63.155 30.997 97.253 -0.87584 0.11146 
5.150 559.0 69.931 30.864 96.596 -0.87488 0.10117 
5.175 559.0 65.209 30.881 96.554 -0.87523 0.10056 
5.200 559.0 60.878 30.808 96.163 -0.87469 0.09445 
5.225 576.0 70.765 30.683 95.292 -0.87396 0.08096 
5.250 576.0 65.864 30.660 95.300 -0.87357 0.08103 
5.275 576.0 61.399 30.548 94.774 -0.87239 0.07286 
5.300 590.0 68.543 30.486 94.356 -0.87186 0.06641 
5.325 590.0 63.691 30.410 94.267 -0.87067 0.06495 
5.350 603.0 69.585 30.411 94.015 -0.87097 0.06114 
5.375 603.0 64.593 30.224 93.560 -0.86823 0.05402 
5.400 603.0 60.984 30.136 92.976 -0.86721 0.04509 
5.425 617.0 66.447 30.120 92.879 -0.86702 0.04360 
5.450 617.0 62.347 29.986 92.414 -0.86502 0.03646 
5.475 631.0 68.758 29.977 92.092 -0.86504 0.03161 
5.500 631.0 63.642 29.792 91.867 -0.86192 0.02809 
5.525 643.0 67.257 29.659 91.157 -0.85984 0.01737 
5.550 643.0 62.227 29.495 91.013 -0.85695 0.01516 
5.575 657.0 67.406 29.517 90.633 -0.85741 0.00947 
5.600 657.0 61.583 29.418 90.653 -0.85563 0.00975 
5.625 674.0 67.966 29.183 90.028 -0.85141 0.00042 
5.650 674.0 61.746 29.149 89.535 -0.85076 -0.00691 
5.675 692.0 69.078 29.050 89.479 -0.84895 -0.00772 
5.700 705.0 72.104 29.002 88.680 -0.84785 -0.01954 
5.725 705.0 65.312 28.849 88.974 -0.84511 -0.01513 
5.750 705.0 59.580 28.767 88.314 -0.84335 -0.02483 
5.775 726.0 66.442 28.723 87.980 -0.84236 -0.02971 
5.800 726.0 59.764 28.632 87.840 -0.84058 -0.03170 
5.825 750.0 68.379 28.302 87.726 -0.83424 -0.03313 
5.850 750.0 61.684 28.393 87.795 -0.83602 -0.03219 
5.875 773.0 68.775 27.968 87.206 -0.82742 -0.04038 
5.900 773.0 60.886 28.071 86.940 -0.82924 -0.04434 
5.925 780.0 58.092 27.994 86.513 -0.82739 -0.05042 
5.950 780.0 51.576 28.043 86.449 -0.82829 -0.05140 
5.975 780.0 45.306 27.557 86.985 -0.81916 -0.04315 
6.000 780.0 41.006 27.421 86.029 -0.81560 -0.05662 
6.025 780.0 35.789 27.323 86.612 -0.81417 -0.04821 
6.050 780.0 32.291 27.162 85.763 -0.81010 -0.06002 
6.075 780.0 28.972 27.177 85.318 -0.80993 -0.06634 
6.100 780.0 26.050 26.937 85.963 -0.80572 -0.05687 
6.125 780.0 23.139 26.748 86.200 -0.80204 -0.05327 
6.150 780.0 21.174 26.538 86.115 -0.79759 -0.05416 
6.175 780.0 19.101 26.686 84.772 -0.79918 -0.07312 
6.200 780.0 17.250 26.188 85.358 -0.78944 -0.06409 
6.225 780.0 15.705 25.951 86.101 -0.78515 -0.05351 
6.250 780.0 14.373 26.243 86.475 -0.79171 -0.04877 
6.275 780.0 12.902 26.055 86.350 -0.78758 -0.05024 
6.300 780.0 11.719 25.794 86.756 -0.78230 -0.04434 
6.325 780.0 10.632 25.404 87.411 -0.77424 -0.03501 
6.350 780.0 9.426 26.135 86.365 -0.78932 -0.05015 
6.375 780.0 8.489 26.082 86.063 -0.78790 -0.05423 
6.400 780.0 7.603 25.232 86.668 -0.76991 -0.04482 
6.425 780.0 6.777 25.099 88.142 -0.76786 -0.02490 
6.450 780.0 5.925 25.495 87.590 -0.77636 -0.03268 
6.475 780.0 5.329 25.615 86.919 -0.77854 -0.04190 
6.500 780.0 4.714 25.654 89.017 -0.78040 -0.01338 

# MINIMA:
0.600 323.9 0.000 0.000 0.000 -0.87911 -0.07312 

# MAXIMA:
6.500 1822.5 82.781 38.654 159.157 0.00000 0.91172 

# PEAKS:

# END SPECTRUM


# SPECTRUM:
4

# START TIME:
11:11:18

# END TIME:
11:21:38

# THETA ANGLE:
0.00 ø

# INCIDENCE ANGLE:
70.00 ø

# ACCUMULATION NUMBER:
1

# ELLIPSOMETRIC CONFIGURATION:
0.00 ø :Modulator
-45.00 øAnalyser

# INTEGRATION TIME:
500 ms

# FIRST POINT:
0.6000 eV

# LAST POINT:
6.5000 eV

# INCREMENT:
0.0250 eV

# NUMBER OF POINTS:
237

# DATA:
eV Hv S0 Psi Delta Is Ic 
0.600 1003.3 65.415 36.977 152.371 -0.44568 0.85145 
0.625 901.7 72.576 36.258 151.819 -0.45044 0.84073 
0.650 800.1 61.952 36.783 151.129 -0.46312 0.83993 
0.675 901.7 75.579 37.506 150.503 -0.47562 0.84077 
0.700 800.1 70.730 35.066 149.263 -0.48067 0.80837 
0.725 800.1 79.808 36.099 148.633 -0.49559 0.81297 
0.750 800.1 79.037 35.653 147.922 -0.50306 0.80262 
0.775 698.5 67.773 34.064 146.790 -0.50829 0.77645 
0.800 501.7 79.007 35.580 146.481 -0.52263 0.78903 
0.825 698.5 75.752 36.741 145.923 -0.53719 0.79410 
0.850 698.5 69.565 35.176 144.856 -0.54212 0.77010 
0.875 501.7 69.482 34.995 144.224 -0.54933 0.76234 
0.900 603.3 75.083 35.028 143.448 -0.55984 0.75514 
0.925 704.9 76.539 34.935 142.747 -0.56835 0.74735 
0.950 704.9 66.809 34.529 141.937 -0.57581 0.73532 
0.975 508.0 66.109 34.528 141.113 -0.58630 0.72696 
1.000 704.9 65.652 34.494 140.460 -0.59429 0.71989 
1.025 704.9 68.571 34.561 139.963 -0.60105 0.71536 
1.050 444.5 60.867 33.671 138.725 -0.60877 0.69355 
1.075 743.0 74.514 34.586 138.562 -0.61856 0.70068 
1.100 654.1 61.545 34.201 137.768 -0.62495 0.68844 
1.125 654.1 61.037 34.145 136.998 -0.63365 0.67945 
1.150 654.1 75.101 33.679 136.127 -0.63964 0.66532 
1.175 654.1 79.479 33.962 135.567 -0.64876 0.66172 
1.200 755.7 83.693 33.658 134.810 -0.65457 0.65025 
1.225 482.6 61.065 33.629 134.089 -0.66242 0.64168 
1.250 381.0 80.573 33.298 133.428 -0.66649 0.63088 
1.275 577.9 66.108 33.564 132.942 -0.67449 0.62769 
1.300 577.9 71.401 33.121 132.124 -0.67884 0.61390 
1.325 774.7 80.659 33.201 131.613 -0.68512 0.60856 
1.350 425.5 62.552 33.018 130.834 -0.69138 0.59751 
1.375 825.5 77.354 32.856 130.290 -0.69526 0.58942 
1.400 539.8 62.034 32.929 129.768 -0.70142 0.58373 
1.425 1238.3 63.739 32.648 128.950 -0.70652 0.57112 
1.450 2038.4 63.010 32.644 128.608 -0.70987 0.56685 
1.475 780.0 0.000 0.000 0.000 0.00000 0.00000 
1.500 450.0 64.977 31.934 127.099 -0.71607 0.54154 
1.525 543.0 72.174 32.274 126.825 -0.72278 0.54119 
1.550 486.0 63.630 31.872 126.015 -0.72541 0.52733 
1.575 530.0 65.802 31.952 125.637 -0.72987 0.52325 
1.600 530.0 73.781 31.447 124.792 -0.73103 0.50793 
1.625 488.0 71.513 31.448 124.288 -0.73548 0.50149 
1.650 488.0 63.904 31.372 123.747 -0.73918 0.49385 
1.675 488.0 76.038 31.261 123.143 -0.74285 0.48505 
1.700 475.0 71.166 31.250 122.720 -0.74626 0.47947 
1.725 466.0 70.815 31.072 122.106 -0.74892 0.46990 
1.750 457.0 68.915 30.867 121.419 -0.75163 0.45913 
1.775 457.0 78.786 30.922 121.164 -0.75443 0.45624 
1.800 436.0 70.248 30.708 120.464 -0.75689 0.44520 
1.825 436.0 75.601 30.662 119.999 -0.75981 0.43865 
1.850 427.0 71.563 30.483 119.393 -0.76178 0.42911 
1.875 427.0 76.603 30.381 118.970 -0.76342 0.42265 
1.900 415.0 69.940 30.293 118.468 -0.76577 0.41522 
1.925 415.0 75.411 30.188 117.960 -0.76782 0.40757 
1.950 406.0 70.566 30.052 117.469 -0.76919 0.39988 
1.975 406.0 77.101 30.013 117.041 -0.77156 0.39383 
2.000 397.0 69.651 29.937 116.588 -0.77345 0.38711 
2.025 397.0 71.220 29.841 116.059 -0.77549 0.37922 
2.050 397.0 69.980 29.703 115.560 -0.77655 0.37140 
2.075 388.0 69.898 29.596 115.071 -0.77797 0.36394 
2.100 388.0 73.411 29.484 114.582 -0.77922 0.35645 
2.125 388.0 75.512 29.418 114.044 -0.78144 0.34865 
2.150 388.0 77.660 29.316 113.516 -0.78293 0.34068 
2.175 381.0 69.725 29.200 113.058 -0.78368 0.33360 
2.200 381.0 71.478 29.115 112.498 -0.78547 0.32531 
2.225 381.0 72.962 29.036 111.988 -0.78699 0.31777 
2.250 381.0 74.157 28.960 111.402 -0.78889 0.30919 
2.275 381.0 74.894 28.861 110.824 -0.79024 0.30057 
2.300 381.0 75.108 28.756 110.265 -0.79128 0.29216 
2.325 381.0 76.419 28.576 109.647 -0.79120 0.28247 
2.350 381.0 77.040 28.431 109.095 -0.79128 0.27393 
2.375 381.0 77.616 28.229 108.502 -0.79040 0.26450 
2.400 381.0 78.387 28.013 107.872 -0.78928 0.25451 
2.425 373.0 69.503 27.727 107.388 -0.78603 0.24615 
2.450 366.0 68.508 27.453 106.920 -0.78279 0.23813 
2.475 366.0 68.122 27.182 106.625 -0.77877 0.23253 
2.500 366.0 73.614 26.756 106.775 -0.76976 0.23204 
2.525 366.0 73.337 26.518 106.748 -0.76512 0.23025 
2.550 366.0 71.456 26.294 106.933 -0.75985 0.23133 
2.575 366.0 75.459 26.114 106.936 -0.75618 0.23027 
2.600 366.0 70.066 26.070 107.210 -0.75417 0.23360 
2.625 357.0 69.520 25.921 107.109 -0.75151 0.23133 
2.650 357.0 72.059 25.894 107.171 -0.75071 0.23197 
2.675 357.0 62.601 25.814 107.042 -0.74958 0.22978 
2.700 365.0 66.793 25.831 107.123 -0.74959 0.23094 
2.725 365.0 62.380 25.766 106.925 -0.74904 0.22793 
2.750 365.0 64.508 26.326 107.085 -0.75988 0.23355 
2.775 375.0 68.500 25.802 106.855 -0.75008 0.22724 
2.800 375.0 66.977 25.757 106.591 -0.75018 0.22350 
2.825 375.0 65.619 25.773 106.528 -0.75075 0.22278 
2.850 375.0 62.348 25.696 106.083 -0.75086 0.21648 
2.875 375.0 60.191 25.670 105.855 -0.75115 0.21333 
2.900 384.0 69.185 25.715 105.809 -0.75227 0.21299 
2.925 384.0 67.625 25.666 105.583 -0.75208 0.20975 
2.950 384.0 66.925 25.642 105.313 -0.75257 0.20606 
2.975 384.0 62.740 25.618 105.031 -0.75305 0.20221 
3.000 384.0 60.876 25.504 104.670 -0.75191 0.19684 
3.025 393.0 68.786 25.546 104.640 -0.75288 0.19668 
3.050 393.0 65.577 25.461 104.353 -0.75205 0.19243 
3.075 393.0 62.125 25.411 103.999 -0.75216 0.18752 
3.100 386.0 68.656 25.395 103.820 -0.75240 0.18509 
3.125 386.0 66.180 25.300 103.534 -0.75128 0.18083 
3.150 386.0 62.166 25.242 103.290 -0.75079 0.17733 
3.175 386.0 58.256 25.131 102.927 -0.74949 0.17203 
3.200 398.0 68.142 25.056 102.806 -0.74822 0.17008 
3.225 398.0 64.918 24.915 102.593 -0.74576 0.16660 
3.250 398.0 61.394 24.804 102.369 -0.74395 0.16315 
3.275 408.0 68.795 24.673 102.277 -0.74130 0.16132 
3.300 408.0 63.204 24.493 102.196 -0.73751 0.15940 
3.325 419.0 68.652 24.356 102.320 -0.73409 0.16033 
3.350 419.0 63.962 24.192 102.500 -0.72989 0.16181 
3.375 419.0 63.718 24.080 102.755 -0.72663 0.16448 
3.400 419.0 62.861 23.954 103.049 -0.72290 0.16755 
3.425 419.0 61.159 23.915 103.345 -0.72114 0.17107 
3.450 428.0 68.799 23.923 103.799 -0.71994 0.17682 
3.475 428.0 66.049 23.934 104.113 -0.71921 0.18083 
3.500 428.0 62.804 23.941 104.331 -0.71868 0.18361 
3.525 437.0 69.332 24.001 104.720 -0.71877 0.18883 
3.550 437.0 65.960 24.020 104.860 -0.71874 0.19071 
3.575 437.0 62.863 24.046 105.103 -0.71852 0.19392 
3.600 437.0 60.371 24.111 105.428 -0.71887 0.19839 
3.625 447.0 68.998 24.187 105.867 -0.71902 0.20436 
3.650 447.0 66.539 24.254 106.025 -0.71994 0.20678 
3.675 447.0 65.010 24.347 106.395 -0.72065 0.21203 
3.700 447.0 63.621 24.473 106.637 -0.72253 0.21590 
3.725 447.0 62.246 24.636 106.994 -0.72472 0.22149 
3.750 447.0 60.195 24.807 107.198 -0.72764 0.22521 
3.775 457.0 68.606 25.002 107.524 -0.73053 0.23068 
3.800 457.0 65.004 25.215 107.767 -0.73408 0.23522 
3.825 457.0 61.125 25.410 107.907 -0.73761 0.23835 
3.850 468.0 67.527 25.627 108.070 -0.74145 0.24191 
3.875 468.0 61.840 25.843 108.106 -0.74577 0.24384 
3.900 480.0 68.271 26.113 108.255 -0.75064 0.24760 
3.925 480.0 62.494 26.400 108.280 -0.75634 0.24984 
3.950 490.0 68.357 26.705 108.402 -0.76186 0.25347 
3.975 490.0 63.360 26.977 108.230 -0.76795 0.25294 
4.000 500.0 69.443 27.270 108.262 -0.77350 0.25524 
4.025 500.0 65.125 27.622 108.113 -0.78087 0.25542 
4.050 500.0 61.324 27.908 107.907 -0.78717 0.25435 
4.075 510.0 67.618 28.271 107.844 -0.79416 0.25565 
4.100 510.0 63.236 28.626 107.636 -0.80152 0.25481 
4.125 520.0 69.326 28.996 107.351 -0.80938 0.25289 
4.150 520.0 66.383 29.389 107.091 -0.81741 0.25133 
4.175 520.0 64.045 29.816 106.679 -0.82650 0.24764 
4.200 520.0 62.402 30.254 106.166 -0.83601 0.24235 
4.225 520.0 61.647 30.685 105.608 -0.84536 0.23615 
4.250 520.0 60.607 31.193 104.789 -0.85674 0.22619 
4.275 520.0 59.324 31.679 103.930 -0.86753 0.21518 
4.300 520.0 76.038 31.899 102.499 -0.87597 0.19418 
4.325 510.0 70.307 32.386 101.395 -0.88678 0.17872 
4.350 510.0 74.192 32.647 100.017 -0.89462 0.15801 
4.375 501.0 68.777 32.821 98.858 -0.90012 0.14028 
4.400 501.0 71.371 33.049 97.607 -0.90620 0.12103 
4.425 501.0 73.832 33.063 96.337 -0.90885 0.10094 
4.450 501.0 75.747 32.938 94.841 -0.90941 0.07702 
4.475 501.0 77.901 33.050 94.041 -0.91198 0.06442 
4.500 501.0 79.123 33.013 93.050 -0.91243 0.04862 
4.525 492.0 70.366 32.938 91.992 -0.91211 0.03173 
4.550 492.0 70.295 32.888 91.059 -0.91179 0.01686 
4.575 492.0 70.324 32.744 90.302 -0.90986 0.00480 
4.600 492.0 69.707 32.635 89.668 -0.90828 -0.00526 
4.625 492.0 68.090 32.536 89.061 -0.90672 -0.01487 
4.650 492.0 67.353 32.489 88.548 -0.90586 -0.02296 
4.675 492.0 65.568 32.398 87.836 -0.90414 -0.03416 
4.700 492.0 64.129 32.364 87.392 -0.90335 -0.04115 
4.725 492.0 62.351 32.207 86.793 -0.90052 -0.05045 
4.750 492.0 59.960 32.108 86.288 -0.89856 -0.05830 
4.775 492.0 58.240 32.102 85.888 -0.89803 -0.06456 
4.800 506.0 68.811 32.125 85.339 -0.89772 -0.07319 
4.825 506.0 65.787 32.029 84.930 -0.89572 -0.07946 
4.850 506.0 63.286 31.929 84.427 -0.89346 -0.08718 
4.875 516.0 69.151 31.951 83.712 -0.89265 -0.09836 
4.900 516.0 66.728 31.952 83.468 -0.89222 -0.10216 
4.925 516.0 63.173 31.844 82.872 -0.88946 -0.11123 
4.950 516.0 60.925 31.828 82.590 -0.88867 -0.11557 
4.975 516.0 58.476 31.816 82.215 -0.88770 -0.12137 
5.000 530.0 67.905 31.782 81.710 -0.88607 -0.12911 
5.025 530.0 64.852 31.758 81.473 -0.88517 -0.13271 
5.050 530.0 61.114 31.630 80.984 -0.88202 -0.13995 
5.075 541.0 67.374 31.584 80.580 -0.88031 -0.14606 
5.100 541.0 63.762 31.527 79.993 -0.87788 -0.15490 
5.125 541.0 59.752 31.507 79.658 -0.87664 -0.15997 
5.150 556.0 69.250 31.466 79.241 -0.87481 -0.16623 
5.175 556.0 63.798 31.409 78.925 -0.87299 -0.17089 
5.200 568.0 69.986 31.429 78.516 -0.87205 -0.17718 
5.225 568.0 65.444 31.404 78.078 -0.87029 -0.18376 
5.250 568.0 61.231 31.347 77.760 -0.86836 -0.18838 
5.275 582.0 68.064 31.314 77.324 -0.86639 -0.19486 
5.300 582.0 63.673 31.329 76.898 -0.86516 -0.20136 
5.325 595.0 70.177 31.223 76.530 -0.86218 -0.20652 
5.350 595.0 65.655 31.154 76.139 -0.85967 -0.21213 
5.375 595.0 61.478 31.050 75.725 -0.85648 -0.21792 
5.400 607.0 66.798 31.040 75.303 -0.85469 -0.22417 
5.425 607.0 61.839 30.996 74.848 -0.85218 -0.23076 
5.450 621.0 68.322 30.974 74.598 -0.85083 -0.23439 
5.475 621.0 63.735 30.859 74.201 -0.84735 -0.23977 
5.500 633.0 67.815 30.858 73.905 -0.84609 -0.24412 
5.525 633.0 63.254 30.639 73.632 -0.84142 -0.24713 
5.550 633.0 58.542 30.684 73.417 -0.84120 -0.25050 
5.575 651.0 66.377 30.632 72.829 -0.83776 -0.25887 
5.600 651.0 61.185 30.434 72.509 -0.83311 -0.26254 
5.625 669.0 68.905 30.324 72.232 -0.83004 -0.26598 
5.650 669.0 62.791 30.354 71.917 -0.82906 -0.27070 
5.675 669.0 58.138 30.341 71.404 -0.82639 -0.27805 
5.700 690.0 66.080 30.213 71.121 -0.82293 -0.28141 
5.725 704.0 69.713 30.122 70.849 -0.82011 -0.28480 
5.750 704.0 63.835 30.118 70.575 -0.81866 -0.28871 
5.775 724.0 70.034 30.189 70.174 -0.81778 -0.29483 
5.800 724.0 64.538 30.065 69.956 -0.81463 -0.29721 
5.825 724.0 57.349 29.802 69.721 -0.80908 -0.29895 
5.850 748.0 66.150 29.445 69.464 -0.80177 -0.30034 
5.875 765.0 69.899 29.733 69.047 -0.80438 -0.30802 
5.900 765.0 61.768 29.608 68.725 -0.80055 -0.31171 
5.925 780.0 64.196 29.565 68.143 -0.79663 -0.31956 
5.950 780.0 57.036 29.234 68.871 -0.79505 -0.30724 
5.975 780.0 50.595 29.378 68.655 -0.79631 -0.31120 
6.000 780.0 45.211 29.302 67.907 -0.79091 -0.32104 
6.025 780.0 40.079 29.196 67.177 -0.78498 -0.33034 
6.050 780.0 36.488 28.996 67.567 -0.78381 -0.32359 
6.075 780.0 32.592 28.754 67.751 -0.78067 -0.31936 
6.100 780.0 29.336 29.126 67.180 -0.78382 -0.32980 
6.125 780.0 26.294 29.032 67.506 -0.78408 -0.32468 
6.150 780.0 23.803 28.762 67.813 -0.78116 -0.31858 
6.175 780.0 21.771 28.153 68.098 -0.77197 -0.31036 
6.200 780.0 19.749 28.360 67.091 -0.77006 -0.32543 
6.225 780.0 17.909 28.445 67.405 -0.77333 -0.32182 
6.250 780.0 16.277 28.413 67.323 -0.77231 -0.32269 
6.275 780.0 14.959 28.402 68.262 -0.77729 -0.30991 
6.300 780.0 13.440 28.203 67.803 -0.77125 -0.31470 
6.325 780.0 12.208 27.757 68.404 -0.76641 -0.30338 
6.350 780.0 11.001 27.737 68.859 -0.76843 -0.29714 
6.375 780.0 9.727 27.898 67.297 -0.76295 -0.31920 
6.400 780.0 8.750 28.715 68.353 -0.78330 -0.31087 
6.425 780.0 7.881 28.276 68.842 -0.77813 -0.30116 
6.450 780.0 6.868 28.208 68.394 -0.77454 -0.30675 
6.475 780.0 6.133 27.536 69.830 -0.76959 -0.28270 
6.500 780.0 5.422 27.183 70.885 -0.76793 -0.26615 

# MINIMA:
0.600 357.0 0.000 0.000 0.000 -0.91243 -0.33034 

# MAXIMA:
6.500 2038.4 83.693 37.506 152.371 0.00000 0.85145 

# PEAKS:

# END SPECTRUM


# SPECTRUM:
5

# START TIME:
11:22:21

# END TIME:
11:32:52

# THETA ANGLE:
0.00 ø

# INCIDENCE ANGLE:
75.00 ø

# ACCUMULATION NUMBER:
1

# ELLIPSOMETRIC CONFIGURATION:
0.00 ø :Modulator
-45.00 øAnalyser

# INTEGRATION TIME:
500 ms

# FIRST POINT:
0.6000 eV

# LAST POINT:
6.5000 eV

# INCREMENT:
0.0250 eV

# NUMBER OF POINTS:
237

# DATA:
eV Hv S0 Psi Delta Is Ic 
0.600 1098.6 76.481 37.287 142.362 -0.58867 0.76335 
0.625 901.7 69.303 35.168 141.117 -0.59112 0.73304 
0.650 901.7 78.250 32.626 139.210 -0.59330 0.68757 
0.675 901.7 72.834 34.421 138.867 -0.61347 0.70241 
0.700 800.1 71.320 35.022 138.083 -0.62794 0.69943 
0.725 800.1 79.929 34.102 136.747 -0.63623 0.67627 
0.750 704.9 62.653 34.304 135.824 -0.64885 0.66780 
0.775 704.9 72.383 33.417 134.558 -0.65509 0.64506 
0.800 444.5 61.654 32.616 133.066 -0.66336 0.62003 
0.825 641.4 65.417 33.750 132.734 -0.67861 0.62694 
0.850 743.0 82.064 32.868 131.474 -0.68307 0.60378 
0.875 546.1 85.223 33.180 130.924 -0.69218 0.60009 
0.900 546.1 60.290 33.564 129.916 -0.70668 0.59122 
0.925 723.9 79.343 32.799 128.718 -0.71053 0.56961 
0.950 723.9 67.729 32.827 127.752 -0.72036 0.55779 
0.975 527.1 70.240 32.419 126.614 -0.72651 0.53982 
1.000 723.9 64.886 31.982 125.496 -0.73154 0.52172 
1.025 723.9 67.523 32.542 124.977 -0.74312 0.51988 
1.050 450.9 61.810 32.316 124.003 -0.74907 0.50531 
1.075 749.3 69.446 32.010 122.954 -0.75431 0.48900 
1.100 749.3 77.126 31.858 121.896 -0.76123 0.47376 
1.125 749.3 76.752 31.881 120.925 -0.76945 0.46096 
1.150 647.7 67.592 31.720 120.066 -0.77412 0.44813 
1.175 647.7 71.433 31.601 119.100 -0.77993 0.43411 
1.200 749.3 76.003 31.689 118.406 -0.78635 0.42528 
1.225 489.0 61.020 31.603 117.594 -0.79110 0.41347 
1.250 349.3 64.294 31.293 116.414 -0.79502 0.39490 
1.275 628.7 79.580 31.319 115.761 -0.79986 0.38600 
1.300 539.8 60.686 31.135 114.848 -0.80321 0.37196 
1.325 736.6 71.318 31.019 114.005 -0.80686 0.35932 
1.350 438.2 66.595 30.948 113.189 -0.81083 0.34734 
1.375 838.2 79.525 30.949 112.479 -0.81509 0.33727 
1.400 539.8 61.914 30.849 111.757 -0.81774 0.32637 
1.425 1339.9 71.422 30.681 110.956 -0.81961 0.31390 
1.450 2241.6 64.043 30.633 110.000 -0.82397 0.29990 
1.475 780.0 0.000 0.000 0.000 0.00000 0.00000 
1.500 456.0 60.454 30.162 108.341 -0.82470 0.27340 
1.525 557.0 73.770 30.302 107.889 -0.82913 0.26763 
1.550 506.0 72.746 30.166 107.127 -0.83038 0.25589 
1.575 542.0 66.500 30.035 106.359 -0.83156 0.24409 
1.600 542.0 75.003 30.005 105.688 -0.83386 0.23420 
1.625 498.0 71.131 29.894 104.943 -0.83494 0.22283 
1.650 498.0 64.057 29.711 104.111 -0.83495 0.20990 
1.675 498.0 76.182 29.695 103.357 -0.83737 0.19882 
1.700 483.0 69.235 29.608 102.744 -0.83794 0.18951 
1.725 473.0 69.045 29.536 102.165 -0.83855 0.18076 
1.750 473.0 77.602 29.468 101.380 -0.83975 0.16902 
1.775 458.0 70.161 29.401 100.858 -0.84007 0.16114 
1.800 444.0 70.444 29.336 100.143 -0.84086 0.15044 
1.825 444.0 75.923 29.213 99.452 -0.84040 0.13992 
1.850 433.0 69.559 29.143 98.864 -0.84052 0.13107 
1.875 433.0 75.478 29.073 98.156 -0.84081 0.12051 
1.900 421.0 69.542 29.004 97.591 -0.84068 0.11204 
1.925 421.0 75.340 28.980 96.962 -0.84142 0.10275 
1.950 412.0 70.356 28.859 96.370 -0.84020 0.09380 
1.975 412.0 76.944 28.808 95.735 -0.84025 0.08439 
2.000 403.0 69.881 28.755 95.199 -0.84002 0.07643 
2.025 403.0 72.353 28.718 94.534 -0.84015 0.06662 
2.050 403.0 70.912 28.641 93.984 -0.83931 0.05845 
2.075 393.0 70.535 28.601 93.423 -0.83909 0.05019 
2.100 393.0 74.239 28.558 92.763 -0.83880 0.04048 
2.125 393.0 77.829 28.509 92.203 -0.83823 0.03224 
2.150 386.0 70.478 28.491 91.616 -0.83816 0.02364 
2.175 386.0 72.804 28.364 90.985 -0.83595 0.01437 
2.200 386.0 74.291 28.371 90.348 -0.83620 0.00508 
2.225 386.0 76.757 28.307 89.699 -0.83496 -0.00438 
2.250 386.0 78.292 28.291 89.099 -0.83457 -0.01312 
2.275 379.0 70.314 28.243 88.453 -0.83345 -0.02251 
2.300 379.0 70.630 28.192 87.738 -0.83212 -0.03287 
2.325 379.0 72.265 28.097 87.006 -0.82979 -0.04339 
2.350 379.0 73.414 27.982 86.321 -0.82697 -0.05317 
2.375 379.0 74.507 27.897 85.619 -0.82460 -0.06318 
2.400 379.0 75.917 27.701 84.879 -0.81987 -0.07347 
2.425 372.0 69.123 27.461 84.223 -0.81422 -0.08237 
2.450 372.0 78.949 27.229 83.583 -0.80859 -0.09094 
2.475 372.0 78.639 27.014 83.116 -0.80347 -0.09700 
2.500 372.0 68.629 26.503 82.948 -0.79265 -0.09806 
2.525 372.0 69.247 26.241 82.703 -0.78673 -0.10075 
2.550 372.0 67.615 26.042 82.673 -0.78247 -0.10061 
2.575 372.0 71.630 25.864 82.635 -0.77860 -0.10064 
2.600 372.0 66.272 25.767 82.769 -0.77676 -0.09855 
2.625 365.0 69.388 25.685 82.711 -0.77489 -0.09912 
2.650 365.0 72.005 25.658 82.708 -0.77430 -0.09909 
2.675 365.0 62.718 25.617 82.748 -0.77348 -0.09843 
2.700 374.0 68.241 25.614 82.706 -0.77333 -0.09898 
2.725 374.0 63.587 25.587 82.540 -0.77246 -0.10115 
2.750 374.0 66.554 25.577 82.397 -0.77200 -0.10304 
2.775 383.0 68.627 25.611 82.224 -0.77240 -0.10548 
2.800 383.0 66.732 25.587 82.055 -0.77157 -0.10768 
2.825 383.0 65.934 25.607 81.801 -0.77152 -0.11116 
2.850 383.0 62.373 25.610 81.638 -0.77128 -0.11337 
2.875 383.0 60.675 25.620 81.448 -0.77111 -0.11596 
2.900 383.0 59.103 25.617 81.119 -0.77035 -0.12037 
2.925 392.0 68.733 25.632 80.884 -0.77019 -0.12358 
2.950 392.0 68.268 25.643 80.537 -0.76966 -0.12828 
2.975 392.0 64.247 25.592 80.339 -0.76811 -0.13076 
3.000 392.0 61.698 25.608 80.058 -0.76781 -0.13458 
3.025 392.0 59.210 25.574 79.823 -0.76651 -0.13760 
3.050 402.0 68.080 25.592 79.374 -0.76581 -0.14368 
3.075 402.0 65.085 25.565 79.205 -0.76479 -0.14582 
3.100 393.0 69.560 25.551 78.825 -0.76350 -0.15083 
3.125 393.0 67.412 25.534 78.532 -0.76236 -0.15466 
3.150 393.0 63.185 25.475 78.198 -0.76018 -0.15884 
3.175 401.0 68.944 25.441 77.867 -0.75852 -0.16307 
3.200 401.0 64.919 25.337 77.633 -0.75561 -0.16567 
3.225 401.0 61.831 25.277 77.343 -0.75345 -0.16921 
3.250 410.0 69.113 25.178 76.981 -0.75023 -0.17346 
3.275 410.0 64.695 25.065 76.712 -0.74695 -0.17640 
3.300 418.0 68.618 24.945 76.539 -0.74379 -0.17803 
3.325 418.0 62.087 24.775 76.394 -0.73961 -0.17902 
3.350 427.0 68.066 24.606 76.360 -0.73578 -0.17854 
3.375 427.0 67.774 24.447 76.481 -0.73261 -0.17614 
3.400 427.0 67.367 24.358 76.550 -0.73084 -0.17479 
3.425 427.0 65.357 24.242 76.863 -0.72918 -0.17019 
3.450 427.0 62.966 24.170 77.173 -0.72845 -0.16586 
3.475 427.0 60.411 24.160 77.307 -0.72862 -0.16411 
3.500 436.0 66.841 24.158 77.642 -0.72951 -0.15984 
3.525 436.0 63.455 24.126 77.813 -0.72928 -0.15750 
3.550 436.0 60.727 24.094 78.068 -0.72923 -0.15410 
3.575 446.0 68.511 24.127 78.320 -0.73064 -0.15104 
3.600 446.0 66.286 24.093 78.546 -0.73047 -0.14801 
3.625 446.0 63.985 24.099 78.803 -0.73127 -0.14476 
3.650 446.0 62.054 24.092 79.184 -0.73205 -0.13985 
3.675 446.0 60.509 24.149 79.561 -0.73427 -0.13528 
3.700 455.0 68.646 24.253 79.855 -0.73731 -0.13193 
3.725 455.0 66.704 24.312 80.211 -0.73946 -0.12758 
3.750 455.0 65.222 24.402 80.626 -0.74241 -0.12257 
3.775 455.0 62.404 24.507 80.979 -0.74554 -0.11836 
3.800 464.0 68.721 24.654 81.320 -0.74953 -0.11443 
3.825 464.0 64.811 24.798 81.638 -0.75339 -0.11075 
3.850 464.0 60.269 24.975 81.926 -0.75790 -0.10751 
3.875 478.0 68.991 25.172 82.304 -0.76295 -0.10310 
3.900 478.0 63.477 25.361 82.605 -0.76765 -0.09963 
3.925 488.0 68.416 25.599 82.885 -0.77331 -0.09652 
3.950 488.0 63.926 25.818 83.158 -0.77849 -0.09341 
3.975 488.0 59.647 26.022 83.421 -0.78330 -0.09035 
4.000 501.0 68.755 26.295 83.539 -0.78927 -0.08938 
4.025 501.0 64.853 26.522 83.768 -0.79437 -0.08674 
4.050 501.0 61.473 26.894 83.979 -0.80239 -0.08463 
4.075 512.0 68.379 27.157 84.065 -0.80788 -0.08399 
4.100 512.0 64.866 27.533 84.138 -0.81552 -0.08373 
4.125 512.0 61.336 27.857 84.293 -0.82214 -0.08217 
4.150 523.0 68.963 28.252 84.252 -0.82973 -0.08352 
4.175 523.0 66.920 28.642 84.348 -0.83728 -0.08286 
4.200 523.0 65.757 29.077 84.292 -0.84526 -0.08449 
4.225 523.0 64.662 29.589 84.160 -0.85430 -0.08739 
4.250 523.0 63.484 30.129 83.772 -0.86315 -0.09419 
4.275 523.0 61.695 30.711 83.317 -0.87221 -0.10220 
4.300 523.0 62.713 31.151 82.183 -0.87718 -0.12043 
4.325 523.0 66.917 31.838 81.781 -0.88709 -0.12813 
4.350 523.0 70.803 32.344 80.709 -0.89213 -0.14595 
4.375 523.0 74.877 32.735 79.632 -0.89489 -0.16373 
4.400 523.0 78.139 32.976 78.571 -0.89510 -0.18095 
4.425 523.0 80.068 33.218 77.293 -0.89416 -0.20163 
4.450 511.0 69.381 33.413 76.144 -0.89256 -0.22017 
4.475 511.0 71.252 33.550 75.085 -0.89014 -0.23710 
4.500 511.0 72.463 33.576 73.810 -0.88499 -0.25695 
4.525 511.0 74.010 33.706 72.861 -0.88228 -0.27208 
4.550 511.0 74.137 33.746 72.061 -0.87892 -0.28454 
4.575 511.0 74.685 33.688 71.004 -0.87278 -0.30045 
4.600 511.0 73.937 33.636 70.228 -0.86797 -0.31201 
4.625 511.0 72.883 33.550 69.404 -0.86230 -0.32405 
4.650 511.0 72.239 33.551 68.907 -0.85947 -0.33153 
4.675 511.0 71.126 33.528 68.405 -0.85625 -0.33893 
4.700 511.0 69.653 33.477 67.761 -0.85174 -0.34826 
4.725 511.0 67.869 33.397 67.226 -0.84744 -0.35578 
4.750 511.0 67.074 33.303 66.885 -0.84412 -0.36031 
4.775 511.0 64.625 33.282 66.420 -0.84090 -0.36703 
4.800 511.0 62.462 33.328 65.915 -0.83821 -0.37468 
4.825 511.0 59.793 33.270 65.496 -0.83472 -0.38047 
4.850 524.0 69.325 33.189 64.865 -0.82945 -0.38917 
4.875 524.0 66.089 33.269 64.636 -0.82890 -0.39295 
4.900 524.0 65.586 33.280 64.122 -0.82548 -0.40044 
4.925 524.0 61.793 33.243 63.652 -0.82170 -0.40697 
4.950 535.0 68.714 33.256 63.302 -0.81936 -0.41206 
4.975 535.0 67.313 33.258 62.697 -0.81499 -0.42070 
5.000 535.0 64.982 33.276 62.397 -0.81300 -0.42508 
5.025 535.0 61.062 33.286 62.102 -0.81092 -0.42933 
5.050 548.0 70.268 33.241 61.647 -0.80694 -0.43545 
5.075 548.0 66.065 33.261 61.155 -0.80341 -0.44249 
5.100 548.0 62.661 33.123 60.864 -0.79948 -0.44563 
5.125 548.0 58.996 33.167 60.569 -0.79769 -0.45005 
5.150 564.0 69.356 33.094 60.080 -0.79294 -0.45633 
5.175 564.0 64.940 33.156 59.737 -0.79095 -0.46151 
5.200 564.0 60.572 33.081 59.534 -0.78841 -0.46377 
5.225 579.0 68.256 33.164 59.102 -0.78588 -0.47031 
5.250 579.0 64.790 33.114 58.757 -0.78243 -0.47466 
5.275 579.0 60.476 33.164 58.380 -0.77989 -0.48017 
5.300 593.0 68.144 33.175 58.162 -0.77819 -0.48321 
5.325 593.0 64.384 33.100 57.805 -0.77428 -0.48749 
5.350 593.0 60.217 33.077 57.334 -0.76996 -0.49366 
5.375 609.0 69.175 33.102 56.988 -0.76727 -0.49849 
5.400 609.0 65.151 33.094 56.549 -0.76334 -0.50430 
5.425 609.0 61.151 33.100 56.303 -0.76124 -0.50762 
5.450 623.0 67.923 33.145 55.941 -0.75854 -0.51277 
5.475 623.0 63.958 33.023 55.690 -0.75486 -0.51512 
5.500 623.0 59.512 32.952 55.464 -0.75199 -0.51753 
5.525 641.0 68.855 32.996 55.012 -0.74840 -0.52379 
5.550 641.0 64.213 32.967 54.830 -0.74639 -0.52593 
5.575 641.0 59.284 32.750 54.531 -0.74111 -0.52801 
5.600 658.0 66.607 32.748 54.173 -0.73776 -0.53261 
5.625 658.0 61.691 32.864 53.814 -0.73576 -0.53821 
5.650 673.0 67.229 32.723 53.630 -0.73239 -0.53937 
5.675 673.0 61.836 32.808 53.264 -0.72992 -0.54478 
5.700 690.0 67.769 32.708 52.877 -0.72507 -0.54882 
5.725 690.0 62.022 32.670 52.561 -0.72160 -0.55247 
5.750 710.0 70.574 32.663 52.244 -0.71843 -0.55640 
5.775 710.0 63.866 32.669 52.129 -0.71739 -0.55790 
5.800 729.0 69.739 32.747 51.772 -0.71479 -0.56306 
5.825 729.0 63.287 32.617 51.612 -0.71173 -0.56386 
5.850 746.0 68.219 32.425 51.454 -0.70796 -0.56407 
5.875 746.0 61.044 32.389 51.257 -0.70560 -0.56616 
5.900 769.0 68.328 32.011 51.234 -0.70094 -0.56288 
5.925 769.0 60.926 32.084 51.044 -0.69992 -0.56591 
5.950 780.0 60.249 32.161 50.393 -0.69436 -0.57456 
5.975 780.0 54.292 31.907 50.383 -0.69127 -0.57221 
6.000 780.0 48.695 31.871 49.839 -0.68538 -0.57839 
6.025 780.0 43.602 31.750 50.241 -0.68798 -0.57237 
6.050 780.0 39.161 31.763 50.460 -0.69032 -0.56986 
6.075 780.0 35.223 31.908 49.770 -0.68511 -0.57957 
6.100 780.0 31.675 31.777 49.210 -0.67788 -0.58492 
6.125 780.0 28.583 31.759 50.178 -0.68746 -0.57321 
6.150 780.0 25.843 31.623 49.586 -0.67987 -0.57891 
6.175 780.0 23.517 31.622 49.160 -0.67554 -0.58393 
6.200 780.0 21.510 31.225 49.423 -0.67340 -0.57671 
6.225 780.0 19.624 31.720 49.718 -0.68236 -0.57832 
6.250 780.0 17.893 31.450 49.653 -0.67847 -0.57634 
6.275 780.0 16.224 31.064 49.518 -0.67237 -0.57390 
6.300 780.0 14.668 31.068 49.165 -0.66887 -0.57807 
6.325 780.0 13.480 31.259 49.766 -0.67727 -0.57303 
6.350 780.0 11.965 30.891 50.502 -0.67993 -0.56046 
6.375 780.0 10.652 29.897 50.868 -0.67038 -0.54542 
6.400 780.0 9.629 31.629 50.569 -0.68977 -0.56721 
6.425 780.0 8.529 31.413 50.556 -0.68701 -0.56521 
6.450 780.0 7.457 30.526 52.281 -0.69219 -0.53535 
6.475 780.0 6.538 30.637 51.055 -0.68204 -0.55122 
6.500 780.0 5.780 31.752 52.879 -0.71361 -0.54012 

# MINIMA:
0.600 349.3 0.000 0.000 0.000 -0.89510 -0.58492 

# MAXIMA:
6.500 2241.6 85.223 37.287 142.362 0.00000 0.76335 

# PEAKS:

# END SPECTRUM

