## SPECTRUM TYPE:
Spectroscopic

## DATE:
1/30/2012

## COMMENTS:

## NUMBER OF SPECTRUM:
5

## ELLIPSOMETRIC CONFIGURATION:
0.00 ø :Modulator
+45.00 øAnalyser

## UNIT:
eV


# SPECTRUM:
1

# START TIME:
11:32:52

# END TIME:
11:44:44

# THETA ANGLE:
0.00 ø

# INCIDENCE ANGLE:
55.00 ø

# ACCUMULATION NUMBER:
1

# ELLIPSOMETRIC CONFIGURATION:
0.00 ø :Modulator
+45.00 øAnalyser

# INTEGRATION TIME:
500 ms

# FIRST POINT:
0.6000 eV

# LAST POINT:
6.5000 eV

# INCREMENT:
0.0250 eV

# NUMBER OF POINTS:
237

# DATA:
eV Hv S0 Psi Delta Is Ic 
0.600 3898.9 30.418 41.605 167.478 0.21529 -0.96936 
0.625 4000.5 47.845 41.493 167.155 0.22065 -0.96768 
0.650 4000.5 56.405 41.307 166.882 0.22508 -0.96582 
0.675 4000.5 62.357 41.080 166.391 0.23310 -0.96284 
0.700 3898.9 79.437 40.997 166.075 0.23831 -0.96115 
0.725 2997.2 78.406 40.742 165.684 0.24455 -0.95826 
0.750 2698.8 78.311 40.733 165.298 0.25098 -0.95655 
0.775 2000.3 77.190 40.675 164.971 0.25636 -0.95481 
0.800 1098.6 69.239 40.724 164.602 0.26257 -0.95338 
0.825 1397.0 63.762 40.656 164.377 0.26622 -0.95200 
0.850 1397.0 65.280 40.475 163.931 0.27335 -0.94896 
0.875 997.0 74.154 40.485 163.636 0.27825 -0.94760 
0.900 1098.6 71.342 40.289 163.248 0.28435 -0.94464 
0.925 1200.2 69.778 40.257 162.879 0.29036 -0.94262 
0.950 1200.2 65.473 40.176 162.563 0.29541 -0.94056 
0.975 901.7 74.522 40.268 162.216 0.30127 -0.93925 
1.000 1200.2 73.038 40.185 161.900 0.30631 -0.93712 
1.025 1098.6 66.222 39.938 161.551 0.31154 -0.93384 
1.050 698.5 62.800 39.943 161.212 0.31706 -0.93200 
1.075 1098.6 70.950 39.846 160.856 0.32265 -0.92945 
1.100 997.0 64.562 39.803 160.544 0.32762 -0.92742 
1.125 997.0 68.145 39.599 160.210 0.33257 -0.92427 
1.150 895.4 67.920 39.483 159.832 0.33840 -0.92133 
1.175 895.4 73.901 39.487 159.562 0.34275 -0.91975 
1.200 997.0 75.405 39.368 159.216 0.34802 -0.91692 
1.225 698.5 71.758 39.273 158.897 0.35288 -0.91435 
1.250 438.2 62.479 39.136 158.557 0.35795 -0.91135 
1.275 736.6 65.837 39.090 158.296 0.36197 -0.90941 
1.300 736.6 73.236 38.777 157.858 0.36804 -0.90448 
1.325 838.2 61.963 38.860 157.656 0.37146 -0.90376 
1.350 539.8 67.714 38.635 157.347 0.37568 -0.90017 
1.375 939.8 72.209 38.590 157.076 0.37980 -0.89807 
1.400 641.4 62.714 38.630 156.856 0.38336 -0.89688 
1.425 1441.5 64.243 38.485 156.516 0.38824 -0.89355 
1.450 2641.6 60.774 38.625 156.145 0.39446 -0.89202 
1.475 692.0 76.054 38.164 155.820 0.39800 -0.88641 
1.500 517.0 65.184 37.892 155.557 0.40111 -0.88250 
1.525 609.0 63.161 37.753 155.459 0.40213 -0.88071 
1.550 564.0 72.565 37.768 155.103 0.40765 -0.87831 
1.575 601.0 66.290 37.662 154.845 0.41120 -0.87563 
1.600 601.0 77.575 37.573 154.597 0.41464 -0.87313 
1.625 551.0 72.886 37.416 154.303 0.41850 -0.86971 
1.650 551.0 68.865 37.300 154.053 0.42182 -0.86692 
1.675 538.0 69.748 37.193 153.811 0.42504 -0.86424 
1.700 527.0 70.190 37.164 153.555 0.42877 -0.86208 
1.725 516.0 71.642 36.989 153.326 0.43147 -0.85887 
1.750 505.0 70.303 36.902 153.064 0.43502 -0.85613 
1.775 493.0 69.405 36.743 152.913 0.43656 -0.85359 
1.800 478.0 70.947 36.715 152.644 0.44044 -0.85129 
1.825 478.0 77.719 36.684 152.434 0.44341 -0.84939 
1.850 463.0 69.581 36.562 152.194 0.44639 -0.84644 
1.875 463.0 76.927 36.424 152.016 0.44835 -0.84381 
1.900 449.0 70.731 36.291 151.792 0.45099 -0.84083 
1.925 441.0 68.333 36.219 151.531 0.45446 -0.83810 
1.950 441.0 75.972 36.098 151.405 0.45569 -0.83597 
1.975 430.0 70.245 36.000 151.178 0.45850 -0.83323 
2.000 430.0 76.328 36.015 150.968 0.46162 -0.83169 
2.025 422.0 69.742 35.844 150.808 0.46303 -0.82878 
2.050 422.0 69.795 35.771 150.590 0.46579 -0.82632 
2.075 411.0 69.781 35.578 150.397 0.46750 -0.82287 
2.100 411.0 74.464 35.612 150.190 0.47067 -0.82151 
2.125 411.0 78.470 35.426 149.954 0.47299 -0.81774 
2.150 402.0 69.742 35.361 149.766 0.47530 -0.81553 
2.175 402.0 72.895 35.338 149.594 0.47761 -0.81387 
2.200 402.0 75.873 35.204 149.369 0.48001 -0.81065 
2.225 402.0 78.993 35.198 149.078 0.48408 -0.80814 
2.250 393.0 69.854 34.945 148.880 0.48532 -0.80390 
2.275 393.0 71.857 34.933 148.654 0.48841 -0.80185 
2.300 393.0 72.962 34.769 148.424 0.49058 -0.79819 
2.325 393.0 75.341 34.665 148.213 0.49286 -0.79529 
2.350 393.0 77.564 34.509 148.000 0.49479 -0.79182 
2.375 386.0 69.221 34.294 147.773 0.49647 -0.78755 
2.400 386.0 70.989 34.176 147.589 0.49818 -0.78469 
2.425 386.0 74.880 33.954 147.495 0.49792 -0.78143 
2.450 375.0 69.615 33.734 147.425 0.49731 -0.77837 
2.475 375.0 69.607 33.418 147.479 0.49426 -0.77522 
2.500 411.0 65.630 33.114 147.472 0.49210 -0.77160 
2.525 411.0 66.282 32.979 147.627 0.48898 -0.77131 
2.550 411.0 65.792 32.853 147.848 0.48504 -0.77167 
2.575 411.0 70.046 32.803 147.983 0.48284 -0.77220 
2.600 411.0 66.276 32.737 148.203 0.47938 -0.77324 
2.625 411.0 79.108 32.741 148.290 0.47822 -0.77401 
2.650 401.0 68.802 32.692 148.331 0.47730 -0.77374 
2.675 401.0 60.510 32.679 148.382 0.47651 -0.77401 
2.700 412.0 68.227 32.707 148.375 0.47682 -0.77430 
2.725 412.0 64.663 32.676 148.415 0.47604 -0.77425 
2.750 412.0 67.990 32.681 148.391 0.47641 -0.77412 
2.775 412.0 59.790 32.597 148.354 0.47625 -0.77276 
2.800 421.0 69.290 32.650 148.304 0.47734 -0.77300 
2.825 421.0 69.127 32.611 148.268 0.47753 -0.77222 
2.850 421.0 66.038 32.584 148.192 0.47835 -0.77124 
2.875 421.0 64.510 32.541 148.136 0.47876 -0.77024 
2.900 421.0 63.482 32.543 148.072 0.47964 -0.76972 
2.925 421.0 62.743 32.500 147.978 0.48057 -0.76840 
2.950 421.0 62.816 32.428 147.919 0.48079 -0.76702 
2.975 421.0 59.890 32.390 147.813 0.48190 -0.76564 
3.000 430.0 68.323 32.342 147.813 0.48153 -0.76503 
3.025 430.0 65.884 32.325 147.768 0.48200 -0.76444 
3.050 430.0 63.322 32.249 147.736 0.48181 -0.76321 
3.075 430.0 61.202 32.228 147.652 0.48275 -0.76224 
3.100 430.0 77.977 32.192 147.635 0.48270 -0.76163 
3.125 430.0 75.991 32.152 147.617 0.48262 -0.76097 
3.150 430.0 72.261 32.057 147.596 0.48212 -0.75957 
3.175 430.0 68.456 31.985 147.567 0.48192 -0.75840 
3.200 430.0 65.199 31.943 147.591 0.48126 -0.75807 
3.225 430.0 62.784 31.836 147.641 0.47971 -0.75709 
3.250 430.0 60.064 31.773 147.717 0.47817 -0.75690 
3.275 441.0 68.359 31.689 147.937 0.47458 -0.75761 
3.300 441.0 63.153 31.604 148.104 0.47167 -0.75787 
3.325 451.0 68.053 31.589 148.402 0.46757 -0.76011 
3.350 451.0 64.085 31.575 148.773 0.46254 -0.76294 
3.375 451.0 64.488 31.609 149.119 0.45819 -0.76617 
3.400 451.0 64.314 31.709 149.439 0.45471 -0.77006 
3.425 451.0 62.924 31.834 149.646 0.45291 -0.77338 
3.450 451.0 61.181 31.903 149.914 0.44982 -0.77641 
3.475 460.0 68.774 32.107 150.016 0.44999 -0.77992 
3.500 460.0 65.698 32.243 150.159 0.44906 -0.78282 
3.525 460.0 63.359 32.409 150.245 0.44913 -0.78565 
3.550 460.0 61.202 32.549 150.261 0.44994 -0.78756 
3.575 470.0 69.883 32.763 150.307 0.45085 -0.79063 
3.600 470.0 68.102 32.868 150.327 0.45132 -0.79211 
3.625 470.0 66.827 33.046 150.319 0.45268 -0.79425 
3.650 470.0 65.541 33.305 150.327 0.45437 -0.79747 
3.675 470.0 65.414 33.478 150.244 0.45670 -0.79887 
3.700 470.0 64.691 33.740 150.137 0.45996 -0.80109 
3.725 470.0 64.262 33.834 149.978 0.46280 -0.80090 
3.750 470.0 63.512 34.106 149.795 0.46716 -0.80249 
3.775 470.0 62.554 34.324 149.630 0.47088 -0.80355 
3.800 470.0 59.626 34.552 149.389 0.47571 -0.80404 
3.825 481.0 68.084 34.758 149.108 0.48096 -0.80388 
3.850 481.0 63.969 35.006 148.767 0.48729 -0.80356 
3.875 491.0 69.315 35.201 148.434 0.49316 -0.80267 
3.900 491.0 64.593 35.443 147.979 0.50100 -0.80111 
3.925 491.0 60.592 35.543 147.549 0.50760 -0.79828 
3.950 503.0 69.108 35.895 147.081 0.51623 -0.79740 
3.975 503.0 65.054 36.056 146.584 0.52408 -0.79435 
4.000 503.0 62.403 36.179 146.014 0.53271 -0.79017 
4.025 503.0 59.661 36.213 145.421 0.54105 -0.78492 
4.050 516.0 69.387 36.508 144.875 0.55027 -0.78223 
4.075 516.0 66.888 36.661 144.268 0.55942 -0.77761 
4.100 516.0 63.688 36.731 143.637 0.56838 -0.77196 
4.125 516.0 61.050 36.767 142.956 0.57772 -0.76544 
4.150 516.0 59.096 36.917 142.228 0.58830 -0.75920 
4.175 527.0 67.935 37.035 141.562 0.59779 -0.75320 
4.200 527.0 67.492 36.994 140.817 0.60729 -0.74506 
4.225 527.0 66.974 37.064 139.932 0.61915 -0.73610 
4.250 527.0 66.442 37.076 139.117 0.62964 -0.72731 
4.275 527.0 64.847 37.196 138.255 0.64127 -0.71860 
4.300 557.0 65.600 36.763 136.977 0.65429 -0.70107 
4.325 557.0 71.498 36.630 136.223 0.66253 -0.69144 
4.350 557.0 76.679 36.602 135.563 0.67026 -0.68355 
4.375 547.0 71.054 36.358 135.048 0.67461 -0.67575 
4.400 547.0 74.373 36.184 134.530 0.67939 -0.66834 
4.425 547.0 77.357 36.009 134.161 0.68235 -0.66264 
4.450 547.0 79.354 35.877 133.771 0.68581 -0.65699 
4.475 537.0 70.104 35.722 133.407 0.68873 -0.65145 
4.500 537.0 71.271 35.584 133.092 0.69116 -0.64661 
4.525 537.0 71.931 35.474 132.748 0.69412 -0.64160 
4.550 537.0 72.089 35.383 132.386 0.69739 -0.63649 
4.575 537.0 71.136 35.226 131.948 0.70088 -0.62992 
4.600 537.0 70.167 35.140 131.686 0.70300 -0.62604 
4.625 537.0 68.895 35.017 131.400 0.70503 -0.62157 
4.650 537.0 66.702 34.917 131.014 0.70829 -0.61602 
4.675 537.0 65.865 34.863 130.729 0.71085 -0.61206 
4.700 537.0 63.540 34.805 130.304 0.71484 -0.60631 
4.725 537.0 61.522 34.632 130.122 0.71514 -0.60268 
4.750 537.0 59.512 34.387 129.752 0.71666 -0.59608 
4.775 549.0 68.126 34.370 129.536 0.71874 -0.59325 
4.800 549.0 65.022 34.327 129.057 0.72326 -0.58687 
4.825 549.0 62.955 34.240 128.788 0.72513 -0.58277 
4.850 561.0 71.786 34.050 128.608 0.72505 -0.57896 
4.875 561.0 67.722 33.991 128.106 0.72948 -0.57211 
4.900 561.0 65.078 33.928 127.826 0.73162 -0.56803 
4.925 561.0 62.675 33.763 127.566 0.73245 -0.56337 
4.950 561.0 60.232 33.618 127.367 0.73286 -0.55964 
4.975 575.0 69.352 33.588 127.012 0.73599 -0.55485 
5.000 575.0 66.646 33.350 126.647 0.73689 -0.54820 
5.025 575.0 64.397 33.386 126.403 0.73962 -0.54535 
5.050 575.0 61.434 33.230 126.180 0.74000 -0.54120 
5.075 590.0 69.665 33.088 125.970 0.74036 -0.53731 
5.100 590.0 65.299 32.932 125.735 0.74076 -0.53298 
5.125 590.0 61.525 32.953 125.441 0.74373 -0.52935 
5.150 604.0 68.798 32.809 125.341 0.74296 -0.52685 
5.175 604.0 64.511 32.745 125.040 0.74497 -0.52241 
5.200 617.0 70.303 32.647 124.776 0.74621 -0.51816 
5.225 617.0 65.967 32.471 124.482 0.74671 -0.51286 
5.250 617.0 61.406 32.430 124.246 0.74832 -0.50943 
5.275 634.0 70.880 32.267 124.048 0.74806 -0.50549 
5.300 634.0 66.485 32.190 123.721 0.74998 -0.50057 
5.325 634.0 61.923 32.105 123.445 0.75130 -0.49625 
5.350 648.0 68.324 31.935 123.382 0.74968 -0.49398 
5.375 648.0 64.395 31.795 123.102 0.75028 -0.48913 
5.400 648.0 60.620 31.613 122.761 0.75077 -0.48312 
5.425 662.0 66.514 31.527 122.618 0.75084 -0.48051 
5.450 662.0 62.078 31.458 122.457 0.75126 -0.47781 
5.475 676.0 68.241 31.468 122.529 0.75080 -0.47886 
5.500 676.0 63.131 31.313 122.193 0.75149 -0.47312 
5.525 690.0 68.897 31.118 121.748 0.75247 -0.46560 
5.550 690.0 64.098 31.166 121.737 0.75321 -0.46587 
5.575 705.0 69.389 30.903 121.575 0.75087 -0.46149 
5.600 705.0 64.087 30.813 121.415 0.75088 -0.45862 
5.625 719.0 67.905 30.638 121.244 0.74977 -0.45486 
5.650 719.0 62.462 30.530 121.196 0.74859 -0.45328 
5.675 734.0 67.186 30.258 120.730 0.74826 -0.44482 
5.700 748.0 70.256 30.190 120.968 0.74541 -0.44733 
5.725 748.0 63.195 30.240 120.582 0.74914 -0.44272 
5.750 748.0 58.371 29.791 120.283 0.74468 -0.43486 
5.775 771.0 65.550 29.917 120.661 0.74371 -0.44089 
5.800 771.0 59.062 29.709 120.346 0.74294 -0.43494 
5.825 780.0 58.602 29.320 119.956 0.73984 -0.42639 
5.850 780.0 52.967 29.499 120.555 0.73813 -0.43574 
5.875 780.0 47.434 29.270 119.906 0.73943 -0.42530 
5.900 780.0 42.704 29.073 119.027 0.74270 -0.41214 
5.925 780.0 37.982 29.099 120.034 0.73576 -0.42538 
5.950 780.0 33.895 28.743 120.270 0.72829 -0.42507 
5.975 780.0 30.026 28.948 120.069 0.73310 -0.42442 
6.000 780.0 27.345 28.749 119.476 0.73421 -0.41499 
6.025 780.0 23.878 28.731 120.725 0.72470 -0.43072 
6.050 780.0 21.701 28.589 119.981 0.72791 -0.41994 
6.075 780.0 19.506 29.085 119.991 0.73586 -0.42469 
6.100 780.0 17.654 28.357 119.879 0.72483 -0.41645 
6.125 780.0 15.816 28.356 120.375 0.72119 -0.42270 
6.150 780.0 14.395 28.648 120.107 0.72795 -0.42210 
6.175 780.0 13.112 28.320 120.113 0.72251 -0.41905 
6.200 780.0 11.871 28.676 120.466 0.72575 -0.42691 
6.225 780.0 11.025 27.946 119.662 0.71948 -0.40976 
6.250 780.0 10.000 28.073 119.404 0.72348 -0.40772 
6.275 780.0 9.100 28.893 119.867 0.73370 -0.42133 
6.300 780.0 8.354 29.060 120.598 0.73091 -0.43223 
6.325 780.0 7.400 28.510 120.052 0.72609 -0.42009 
6.350 780.0 6.719 28.586 120.547 0.72367 -0.42708 
6.375 780.0 6.061 28.740 120.538 0.72624 -0.42843 
6.400 780.0 5.450 29.217 121.836 0.72385 -0.44944 
6.425 780.0 4.872 28.716 120.846 0.72355 -0.43211 
6.450 780.0 4.275 29.810 119.907 0.74781 -0.43014 
6.475 780.0 3.795 29.867 120.488 0.74427 -0.43820 
6.500 780.0 3.347 30.590 120.638 0.75383 -0.44649 

# MINIMA:
0.600 375.0 3.347 27.946 119.027 0.21529 -0.96936 

# MAXIMA:
6.500 4000.5 79.437 41.605 167.478 0.75383 -0.40772 

# PEAKS:

# END SPECTRUM


# SPECTRUM:
2

# START TIME:
11:45:35

# END TIME:
11:56:18

# THETA ANGLE:
0.00 ø

# INCIDENCE ANGLE:
60.00 ø

# ACCUMULATION NUMBER:
1

# ELLIPSOMETRIC CONFIGURATION:
0.00 ø :Modulator
+45.00 øAnalyser

# INTEGRATION TIME:
500 ms

# FIRST POINT:
0.6000 eV

# LAST POINT:
6.5000 eV

# INCREMENT:
0.0250 eV

# NUMBER OF POINTS:
237

# DATA:
eV Hv S0 Psi Delta Is Ic 
0.600 3898.9 40.606 40.594 163.952 0.27318 -0.94969 
0.625 3898.9 61.082 40.391 163.543 0.27964 -0.94665 
0.650 3898.9 70.193 40.226 163.127 0.28624 -0.94369 
0.675 3898.9 75.677 40.066 162.601 0.29460 -0.94013 
0.700 3200.4 80.600 39.969 162.174 0.30141 -0.93735 
0.725 2501.9 77.811 39.839 161.758 0.30797 -0.93437 
0.750 2305.1 78.064 39.752 161.246 0.31613 -0.93106 
0.775 1803.4 78.240 39.654 160.807 0.32304 -0.92802 
0.800 1104.9 76.577 39.647 160.338 0.33062 -0.92530 
0.825 1403.4 71.668 39.305 159.883 0.33717 -0.92050 
0.850 1403.4 73.185 39.300 159.484 0.34355 -0.91810 
0.875 1003.3 80.001 39.265 159.010 0.35105 -0.91500 
0.900 1003.3 61.558 39.180 158.619 0.35706 -0.91203 
0.925 1104.9 62.428 39.100 158.163 0.36410 -0.90863 
0.950 1206.5 72.967 38.969 157.741 0.37043 -0.90505 
0.975 806.5 64.719 38.916 157.261 0.37785 -0.90155 
1.000 1104.9 67.003 38.699 156.809 0.38430 -0.89706 
1.025 1104.9 74.219 38.700 156.434 0.39017 -0.89453 
1.050 704.9 71.092 38.507 155.923 0.39753 -0.88965 
1.075 1104.9 78.805 38.497 155.542 0.40340 -0.88692 
1.100 1003.3 70.891 38.376 155.116 0.40959 -0.88302 
1.125 1003.3 75.166 38.333 154.735 0.41529 -0.87997 
1.150 901.7 73.358 38.077 154.232 0.42210 -0.87439 
1.175 901.7 80.209 38.072 153.831 0.42818 -0.87139 
1.200 901.7 64.147 37.832 153.420 0.43351 -0.86647 
1.225 704.9 79.293 37.744 152.983 0.43976 -0.86245 
1.250 425.5 62.013 37.671 152.644 0.44456 -0.85926 
1.275 723.9 66.979 37.735 152.238 0.45089 -0.85659 
1.300 723.9 74.567 37.534 151.820 0.45629 -0.85170 
1.325 825.5 63.306 37.460 151.454 0.46140 -0.84819 
1.350 527.1 69.470 37.171 151.080 0.46563 -0.84281 
1.375 927.1 75.531 37.152 150.699 0.47115 -0.83954 
1.400 628.7 65.642 37.157 150.380 0.47583 -0.83695 
1.425 1428.8 70.489 36.803 149.939 0.48055 -0.83031 
1.450 2330.5 60.958 37.228 149.613 0.48733 -0.83108 
1.475 780.0 0.000 0.000 0.000 0.00000 0.00000 
1.500 503.0 61.783 36.283 148.723 0.49533 -0.81540 
1.525 608.0 73.141 36.155 148.415 0.49900 -0.81158 
1.550 553.0 73.334 36.098 148.143 0.50252 -0.80869 
1.575 590.0 67.220 36.010 147.716 0.50804 -0.80412 
1.600 590.0 78.890 35.934 147.513 0.51043 -0.80162 
1.625 540.0 72.453 35.718 147.100 0.51491 -0.79594 
1.650 540.0 67.868 35.550 146.758 0.51862 -0.79127 
1.675 528.0 69.331 35.513 146.405 0.52326 -0.78771 
1.700 517.0 69.465 35.396 146.066 0.52716 -0.78350 
1.725 507.0 71.199 35.251 145.831 0.52943 -0.77993 
1.750 496.0 69.116 35.167 145.490 0.53350 -0.77596 
1.775 486.0 70.228 35.014 145.185 0.53659 -0.77163 
1.800 470.0 69.775 34.916 144.848 0.54045 -0.76750 
1.825 470.0 76.638 34.823 144.565 0.54358 -0.76390 
1.850 457.0 69.756 34.716 144.265 0.54681 -0.75998 
1.875 457.0 76.558 34.612 143.994 0.54964 -0.75635 
1.900 444.0 71.386 34.431 143.759 0.55141 -0.75227 
1.925 444.0 78.794 34.384 143.450 0.55510 -0.74881 
1.950 431.0 69.898 34.202 143.174 0.55731 -0.74426 
1.975 431.0 77.720 34.122 142.892 0.56034 -0.74070 
2.000 420.0 69.601 34.044 142.621 0.56323 -0.73723 
2.025 420.0 72.399 33.921 142.357 0.56563 -0.73335 
2.050 420.0 72.463 33.853 142.053 0.56897 -0.72964 
2.075 408.0 71.274 33.637 141.810 0.57028 -0.72495 
2.100 408.0 75.782 33.614 141.505 0.57393 -0.72166 
2.125 401.0 70.205 33.468 141.209 0.57641 -0.71714 
2.150 401.0 73.221 33.399 140.949 0.57905 -0.71378 
2.175 401.0 76.299 33.310 140.689 0.58150 -0.71019 
2.200 401.0 79.312 33.209 140.354 0.58475 -0.70570 
2.225 391.0 68.682 33.108 140.031 0.58782 -0.70131 
2.250 391.0 71.249 32.970 139.741 0.59010 -0.69683 
2.275 391.0 73.079 32.898 139.401 0.59356 -0.69254 
2.300 391.0 74.667 32.686 139.087 0.59534 -0.68696 
2.325 391.0 77.019 32.559 138.781 0.59778 -0.68237 
2.350 391.0 78.830 32.392 138.487 0.59963 -0.67745 
2.375 383.0 69.123 32.194 138.138 0.60177 -0.67158 
2.400 383.0 70.669 32.017 137.902 0.60272 -0.66710 
2.425 383.0 74.102 31.747 137.699 0.60228 -0.66188 
2.450 373.0 70.077 31.564 137.542 0.60217 -0.65811 
2.475 373.0 70.385 31.228 137.543 0.59852 -0.65416 
2.500 401.0 66.767 30.786 137.543 0.59364 -0.64882 
2.525 401.0 67.072 30.592 137.729 0.58934 -0.64834 
2.550 401.0 66.576 30.457 137.889 0.58600 -0.64829 
2.575 401.0 70.701 30.391 138.067 0.58323 -0.64927 
2.600 401.0 66.822 30.304 138.264 0.58002 -0.65017 
2.625 393.0 69.105 30.279 138.352 0.57873 -0.65074 
2.650 393.0 71.163 30.257 138.448 0.57739 -0.65143 
2.675 393.0 62.676 30.243 138.443 0.57728 -0.65119 
2.700 402.0 68.361 30.203 138.466 0.57656 -0.65091 
2.725 402.0 64.497 30.200 138.491 0.57624 -0.65112 
2.750 402.0 67.914 30.173 138.457 0.57632 -0.65043 
2.775 402.0 59.249 30.150 138.372 0.57702 -0.64928 
2.800 411.0 69.208 30.147 138.328 0.57749 -0.64880 
2.825 411.0 68.571 30.127 138.200 0.57871 -0.64725 
2.850 411.0 65.816 30.107 138.103 0.57957 -0.64602 
2.875 411.0 64.312 30.069 138.014 0.58012 -0.64461 
2.900 411.0 63.037 30.033 137.873 0.58130 -0.64272 
2.925 411.0 62.104 29.956 137.787 0.58136 -0.64085 
2.950 411.0 62.056 29.927 137.672 0.58230 -0.63932 
2.975 411.0 59.088 29.844 137.612 0.58198 -0.63762 
3.000 420.0 67.587 29.819 137.489 0.58305 -0.63604 
3.025 420.0 65.119 29.774 137.381 0.58370 -0.63436 
3.050 420.0 62.382 29.726 137.286 0.58419 -0.63277 
3.075 420.0 60.184 29.674 137.176 0.58477 -0.63096 
3.100 420.0 76.420 29.622 137.115 0.58482 -0.62967 
3.125 420.0 74.343 29.573 137.043 0.58501 -0.62828 
3.150 420.0 70.715 29.423 136.982 0.58384 -0.62570 
3.175 420.0 66.945 29.362 136.884 0.58415 -0.62389 
3.200 420.0 63.601 29.244 136.877 0.58276 -0.62225 
3.225 420.0 60.665 29.179 136.854 0.58220 -0.62114 
3.250 430.0 69.292 29.075 136.942 0.57995 -0.62065 
3.275 430.0 65.242 28.967 137.056 0.57734 -0.62034 
3.300 430.0 60.349 28.844 137.200 0.57423 -0.62011 
3.325 443.0 67.919 28.744 137.479 0.56994 -0.62152 
3.350 443.0 64.054 28.746 137.848 0.56595 -0.62520 
3.375 443.0 63.955 28.705 138.314 0.56033 -0.62922 
3.400 443.0 63.919 28.723 138.623 0.55715 -0.63247 
3.425 443.0 62.542 28.770 138.989 0.55368 -0.63669 
3.450 443.0 60.532 28.883 139.250 0.55215 -0.64080 
3.475 454.0 70.023 29.017 139.509 0.55086 -0.64519 
3.500 454.0 66.989 29.174 139.690 0.55069 -0.64913 
3.525 454.0 64.390 29.265 139.791 0.55062 -0.65138 
3.550 454.0 61.982 29.376 140.010 0.54943 -0.65501 
3.575 463.0 69.207 29.548 140.120 0.55016 -0.65845 
3.600 463.0 67.496 29.661 140.270 0.54972 -0.66143 
3.625 463.0 65.817 29.845 140.407 0.55021 -0.66527 
3.650 463.0 64.610 29.992 140.442 0.55144 -0.66759 
3.675 463.0 63.647 30.190 140.548 0.55240 -0.67126 
3.700 463.0 63.347 30.408 140.615 0.55397 -0.67479 
3.725 463.0 62.277 30.664 140.548 0.55752 -0.67748 
3.750 463.0 61.226 30.869 140.543 0.55974 -0.68006 
3.775 463.0 59.787 31.088 140.421 0.56349 -0.68164 
3.800 475.0 69.244 31.372 140.297 0.56788 -0.68394 
3.825 475.0 66.046 31.611 140.160 0.57194 -0.68549 
3.850 475.0 62.555 31.875 139.951 0.57709 -0.68655 
3.875 485.0 67.456 32.162 139.746 0.58237 -0.68784 
3.900 485.0 62.486 32.396 139.373 0.58912 -0.68669 
3.925 496.0 68.901 32.720 139.060 0.59598 -0.68706 
3.950 496.0 64.978 32.941 138.617 0.60338 -0.68480 
3.975 496.0 61.517 33.131 138.152 0.61072 -0.68189 
4.000 508.0 69.723 33.461 137.848 0.61739 -0.68203 
4.025 508.0 66.802 33.606 137.309 0.62512 -0.67765 
4.050 508.0 63.467 33.983 136.733 0.63535 -0.67498 
4.075 508.0 61.218 34.109 136.232 0.64235 -0.67059 
4.100 518.0 67.679 34.455 135.549 0.65339 -0.66603 
4.125 518.0 64.548 34.603 134.883 0.66239 -0.65970 
4.150 518.0 62.361 34.882 134.189 0.67278 -0.65401 
4.175 518.0 61.210 35.022 133.450 0.68239 -0.64643 
4.200 518.0 60.649 35.270 132.608 0.69395 -0.63831 
4.225 518.0 60.421 35.361 131.676 0.70504 -0.62763 
4.250 518.0 59.854 35.484 130.592 0.71785 -0.61509 
4.275 529.0 68.940 35.686 129.568 0.73049 -0.60362 
4.300 546.0 67.327 35.631 128.072 0.74551 -0.58396 
4.325 546.0 73.826 35.631 126.813 0.75816 -0.56745 
4.350 546.0 79.963 35.637 125.936 0.76682 -0.55581 
4.375 532.0 70.157 35.453 124.995 0.77413 -0.54195 
4.400 532.0 74.361 35.259 124.212 0.77962 -0.53006 
4.425 523.0 68.860 35.041 123.600 0.78310 -0.52028 
4.450 523.0 71.136 34.896 122.806 0.78877 -0.50845 
4.475 523.0 73.299 34.680 122.358 0.79050 -0.50085 
4.500 523.0 74.087 34.515 121.797 0.79362 -0.49201 
4.525 523.0 76.034 34.377 121.270 0.79664 -0.48379 
4.550 523.0 76.752 34.276 120.812 0.79937 -0.47675 
4.575 523.0 76.154 34.142 120.475 0.80068 -0.47117 
4.600 523.0 74.672 33.959 120.004 0.80247 -0.46338 
4.625 523.0 73.480 33.827 119.752 0.80298 -0.45899 
4.650 523.0 72.480 33.731 119.132 0.80678 -0.44964 
4.675 523.0 70.552 33.658 118.716 0.80916 -0.44330 
4.700 523.0 68.527 33.614 118.437 0.81079 -0.43908 
4.725 523.0 67.137 33.459 117.976 0.81244 -0.43156 
4.750 523.0 64.551 33.308 117.659 0.81297 -0.42608 
4.775 523.0 62.132 33.185 117.340 0.81381 -0.42076 
4.800 523.0 59.182 33.218 116.761 0.81844 -0.41272 
4.825 537.0 70.151 33.062 116.552 0.81799 -0.40875 
4.850 537.0 66.615 32.845 116.085 0.81851 -0.40071 
4.875 537.0 63.624 32.857 115.677 0.82149 -0.39496 
4.900 537.0 61.729 32.749 115.354 0.82230 -0.38966 
4.925 537.0 59.113 32.691 115.033 0.82371 -0.38468 
4.950 550.0 68.808 32.555 114.544 0.82515 -0.37681 
4.975 550.0 64.509 32.476 114.192 0.82638 -0.37126 
5.000 550.0 62.173 32.358 113.928 0.82649 -0.36674 
5.025 562.0 70.121 32.269 113.419 0.82849 -0.35885 
5.050 562.0 66.430 32.104 113.264 0.82717 -0.35562 
5.075 562.0 62.312 31.986 113.024 0.82700 -0.35146 
5.100 573.0 68.682 31.891 112.579 0.82835 -0.34445 
5.125 573.0 64.178 31.859 112.305 0.82954 -0.34030 
5.150 584.0 69.592 31.744 111.956 0.82995 -0.33457 
5.175 584.0 64.509 31.636 111.613 0.83036 -0.32898 
5.200 584.0 60.906 31.557 111.246 0.83129 -0.32321 
5.225 601.0 69.785 31.442 110.957 0.83121 -0.31835 
5.250 601.0 65.633 31.430 110.733 0.83226 -0.31504 
5.275 601.0 61.231 31.273 110.215 0.83272 -0.30662 
5.300 618.0 70.804 31.226 110.098 0.83263 -0.30466 
5.325 618.0 66.550 31.093 109.808 0.83213 -0.29972 
5.350 618.0 62.195 31.055 109.462 0.83335 -0.29448 
5.375 632.0 68.633 30.867 109.285 0.83133 -0.29089 
5.400 632.0 64.435 30.825 108.940 0.83242 -0.28565 
5.425 644.0 69.226 30.468 108.631 0.82827 -0.27924 
5.450 644.0 64.718 30.503 108.109 0.83134 -0.27187 
5.475 644.0 60.491 30.373 107.956 0.82996 -0.26897 
5.500 660.0 67.171 30.183 107.730 0.82791 -0.26469 
5.525 660.0 62.655 30.271 107.446 0.83067 -0.26105 
5.550 677.0 69.944 30.120 107.292 0.82888 -0.25805 
5.575 677.0 64.606 30.044 107.004 0.82890 -0.25348 
5.600 690.0 69.329 29.841 106.693 0.82687 -0.24796 
5.625 690.0 63.733 29.675 106.602 0.82443 -0.24581 
5.650 690.0 58.003 29.619 106.586 0.82354 -0.24528 
5.675 714.0 68.619 29.472 106.133 0.82292 -0.23804 
5.700 714.0 62.650 29.456 106.199 0.82238 -0.23890 
5.725 732.0 68.153 29.254 105.485 0.82176 -0.22767 
5.750 732.0 62.984 29.222 105.317 0.82185 -0.22510 
5.775 747.0 65.527 29.018 105.059 0.81925 -0.22042 
5.800 761.0 68.150 28.941 105.057 0.81788 -0.22002 
5.825 761.0 61.291 28.947 104.630 0.81960 -0.21394 
5.850 777.0 63.421 28.601 104.655 0.81324 -0.21267 
5.875 780.0 58.966 28.354 104.638 0.80875 -0.21124 
5.900 780.0 52.585 28.640 103.948 0.81652 -0.20280 
5.925 780.0 46.480 28.468 104.643 0.81085 -0.21185 
5.950 780.0 41.476 28.335 104.059 0.81050 -0.20297 
5.975 780.0 36.850 27.977 103.704 0.80500 -0.19630 
6.000 780.0 33.470 28.125 104.183 0.80613 -0.20372 
6.025 780.0 29.434 28.105 103.576 0.80786 -0.19508 
6.050 780.0 26.507 27.777 104.195 0.79948 -0.20223 
6.075 780.0 23.801 27.645 103.838 0.79818 -0.19661 
6.100 780.0 21.507 27.744 103.186 0.80228 -0.18797 
6.125 780.0 19.398 27.713 104.035 0.79882 -0.19968 
6.150 780.0 17.126 27.649 103.711 0.79870 -0.19487 
6.175 780.0 15.790 27.507 103.373 0.79707 -0.18950 
6.200 780.0 14.275 27.477 103.273 0.79682 -0.18797 
6.225 780.0 13.204 27.317 103.584 0.79266 -0.19152 
6.250 780.0 11.926 27.001 103.546 0.78653 -0.18949 
6.275 780.0 10.841 26.892 104.066 0.78260 -0.19609 
6.300 780.0 9.907 27.536 104.086 0.79523 -0.19954 
6.325 780.0 8.988 27.171 104.197 0.78769 -0.19927 
6.350 780.0 7.984 27.617 103.718 0.79806 -0.19481 
6.375 780.0 7.216 26.828 104.568 0.77958 -0.20260 
6.400 780.0 6.388 28.063 105.676 0.79938 -0.22434 
6.425 780.0 5.710 26.880 104.393 0.78124 -0.20048 
6.450 780.0 4.986 28.816 105.625 0.81342 -0.22750 
6.475 780.0 4.503 27.782 104.730 0.79764 -0.20971 
6.500 780.0 3.968 28.561 105.377 0.80976 -0.22269 

# MINIMA:
0.600 373.0 0.000 0.000 0.000 0.00000 -0.94969 

# MAXIMA:
6.500 3898.9 80.600 40.594 163.952 0.83335 0.00000 

# PEAKS:

# END SPECTRUM


# SPECTRUM:
3

# START TIME:
11:57:09

# END TIME:
12:07:54

# THETA ANGLE:
0.00 ø

# INCIDENCE ANGLE:
65.00 ø

# ACCUMULATION NUMBER:
1

# ELLIPSOMETRIC CONFIGURATION:
0.00 ø :Modulator
+45.00 øAnalyser

# INTEGRATION TIME:
500 ms

# FIRST POINT:
0.6000 eV

# LAST POINT:
6.5000 eV

# INCREMENT:
0.0250 eV

# NUMBER OF POINTS:
237

# DATA:
eV Hv S0 Psi Delta Is Ic 
0.600 3898.9 52.693 39.257 159.192 0.34812 -0.91606 
0.625 3898.9 78.968 39.017 158.586 0.35717 -0.91074 
0.650 3302.0 78.524 38.919 158.154 0.36377 -0.90735 
0.675 3105.2 78.080 38.734 157.496 0.37363 -0.90184 
0.700 2406.7 78.217 38.561 156.885 0.38269 -0.89659 
0.725 2006.6 78.774 38.360 156.238 0.39216 -0.89075 
0.750 1905.0 79.981 38.248 155.641 0.40106 -0.88580 
0.775 1505.0 73.616 38.150 155.113 0.40885 -0.88133 
0.800 1003.3 72.403 38.054 154.500 0.41792 -0.87618 
0.825 1301.8 70.206 37.926 154.042 0.42444 -0.87184 
0.850 1301.8 69.675 37.804 153.492 0.43231 -0.86679 
0.875 901.7 68.780 37.745 152.911 0.44085 -0.86191 
0.900 1003.3 66.665 37.561 152.293 0.44937 -0.85565 
0.925 1104.9 66.622 37.416 151.677 0.45792 -0.84962 
0.950 1104.9 62.817 37.397 151.206 0.46480 -0.84567 
0.975 806.5 68.043 37.188 150.501 0.47422 -0.83820 
1.000 1104.9 70.550 37.059 150.063 0.47999 -0.83350 
1.025 1104.9 77.845 37.004 149.528 0.48749 -0.82852 
1.050 704.9 75.290 36.811 148.885 0.49580 -0.82139 
1.075 1003.3 65.060 36.759 148.413 0.50226 -0.81684 
1.100 1003.3 74.760 36.642 147.794 0.51044 -0.81038 
1.125 1003.3 79.148 36.559 147.305 0.51689 -0.80529 
1.150 901.7 77.722 36.423 146.754 0.52385 -0.79911 
1.175 800.1 64.593 36.242 146.189 0.53066 -0.79236 
1.200 901.7 67.678 36.088 145.621 0.53756 -0.78570 
1.225 622.3 61.267 35.938 145.147 0.54311 -0.77991 
1.250 425.5 64.554 35.911 144.561 0.55089 -0.77407 
1.275 723.9 68.000 35.759 144.186 0.55497 -0.76909 
1.300 723.9 74.855 35.663 143.529 0.56313 -0.76182 
1.325 825.5 63.801 35.432 143.033 0.56813 -0.75483 
1.350 527.1 70.038 35.361 142.699 0.57203 -0.75086 
1.375 927.1 75.255 35.251 142.161 0.57827 -0.74445 
1.400 628.7 65.507 35.086 141.662 0.58353 -0.73786 
1.425 1428.8 69.519 35.115 141.350 0.58774 -0.73494 
1.450 2425.7 62.357 35.139 140.729 0.59586 -0.72875 
1.475 780.0 0.000 0.000 0.000 0.00000 0.00000 
1.500 502.0 67.492 34.423 139.623 0.60416 -0.71047 
1.525 602.0 73.826 34.233 139.250 0.60720 -0.70469 
1.550 547.0 73.404 34.136 138.799 0.61190 -0.69895 
1.575 583.0 66.699 34.012 138.337 0.61644 -0.69279 
1.600 583.0 77.957 33.903 137.900 0.62076 -0.68700 
1.625 535.0 72.957 33.790 137.516 0.62433 -0.68173 
1.650 535.0 68.683 33.588 137.105 0.62736 -0.67524 
1.675 522.0 69.215 33.520 136.612 0.63252 -0.66914 
1.700 512.0 69.510 33.446 136.155 0.63713 -0.66335 
1.725 501.0 69.781 33.298 135.805 0.63975 -0.65798 
1.750 491.0 68.746 33.164 135.310 0.64409 -0.65111 
1.775 481.0 69.796 32.928 134.980 0.64548 -0.64502 
1.800 466.0 69.665 32.877 134.557 0.64970 -0.63973 
1.825 466.0 76.363 32.787 134.199 0.65275 -0.63475 
1.850 455.0 71.856 32.673 133.715 0.65689 -0.62807 
1.875 447.0 68.361 32.546 133.365 0.65937 -0.62278 
1.900 447.0 78.389 32.424 132.986 0.66216 -0.61717 
1.925 435.0 70.491 32.276 132.609 0.66458 -0.61130 
1.950 435.0 77.883 32.126 132.301 0.66618 -0.60620 
1.975 423.0 70.236 32.046 131.908 0.66942 -0.60081 
2.000 423.0 75.872 31.937 131.571 0.67170 -0.59576 
2.025 415.0 68.585 31.792 131.132 0.67455 -0.58911 
2.050 415.0 68.121 31.719 130.747 0.67763 -0.58383 
2.075 407.0 71.727 31.580 130.414 0.67937 -0.57846 
2.100 407.0 76.060 31.500 130.025 0.68230 -0.57303 
2.125 400.0 70.124 31.349 129.647 0.68422 -0.56698 
2.150 400.0 73.303 31.283 129.271 0.68710 -0.56180 
2.175 400.0 76.197 31.183 128.885 0.68961 -0.55614 
2.200 400.0 78.993 31.107 128.470 0.69266 -0.55038 
2.225 393.0 71.970 30.992 128.045 0.69524 -0.54407 
2.250 393.0 74.369 30.850 127.622 0.69739 -0.53749 
2.275 393.0 76.258 30.774 127.178 0.70052 -0.53130 
2.300 393.0 77.970 30.568 126.767 0.70156 -0.52420 
2.325 393.0 79.950 30.432 126.333 0.70365 -0.51751 
2.350 385.0 70.290 30.190 125.848 0.70465 -0.50911 
2.375 385.0 71.603 30.045 125.437 0.70624 -0.50258 
2.400 385.0 73.416 29.819 125.029 0.70655 -0.49527 
2.425 385.0 76.729 29.552 124.731 0.70521 -0.48887 
2.450 374.0 70.671 29.262 124.441 0.70336 -0.48235 
2.475 374.0 70.650 28.947 124.311 0.69967 -0.47748 
2.500 392.0 66.239 28.487 124.206 0.69339 -0.47134 
2.525 392.0 66.666 28.251 124.373 0.68828 -0.47080 
2.550 392.0 65.557 28.080 124.546 0.68414 -0.47101 
2.575 392.0 69.455 27.968 124.690 0.68115 -0.47148 
2.600 392.0 65.709 27.897 124.880 0.67846 -0.47294 
2.625 392.0 78.399 27.856 125.095 0.67602 -0.47502 
2.650 385.0 71.066 27.812 125.069 0.67552 -0.47422 
2.675 385.0 62.567 27.773 125.048 0.67507 -0.47353 
2.700 394.0 68.057 27.750 125.093 0.67431 -0.47380 
2.725 394.0 64.002 27.725 125.087 0.67397 -0.47344 
2.750 394.0 67.184 27.692 124.993 0.67420 -0.47197 
2.775 403.0 69.416 27.693 124.901 0.67498 -0.47089 
2.800 403.0 68.297 27.671 124.759 0.67577 -0.46896 
2.825 403.0 67.771 27.645 124.643 0.67630 -0.46730 
2.850 403.0 64.630 27.623 124.431 0.67767 -0.46454 
2.875 403.0 63.170 27.573 124.311 0.67781 -0.46257 
2.900 403.0 62.052 27.567 124.169 0.67886 -0.46082 
2.925 403.0 61.145 27.505 123.986 0.67929 -0.45796 
2.950 403.0 60.904 27.459 123.865 0.67951 -0.45601 
2.975 412.0 68.145 27.408 123.678 0.68014 -0.45322 
3.000 412.0 66.459 27.358 123.513 0.68060 -0.45070 
3.025 412.0 63.884 27.300 123.364 0.68078 -0.44828 
3.050 412.0 60.787 27.244 123.153 0.68148 -0.44515 
3.075 421.0 68.658 27.227 123.035 0.68212 -0.44356 
3.100 408.0 69.190 27.130 122.862 0.68178 -0.44043 
3.125 408.0 67.261 27.056 122.703 0.68174 -0.43773 
3.150 408.0 63.759 26.925 122.542 0.68071 -0.43436 
3.175 408.0 60.286 26.845 122.358 0.68070 -0.43129 
3.200 418.0 68.009 26.778 122.348 0.67960 -0.43042 
3.225 418.0 65.071 26.642 122.157 0.67864 -0.42665 
3.250 418.0 62.003 26.513 122.130 0.67655 -0.42490 
3.275 428.0 69.673 26.386 122.190 0.67385 -0.42418 
3.300 428.0 64.091 26.263 122.250 0.67119 -0.42349 
3.325 438.0 68.991 26.102 122.537 0.66618 -0.42500 
3.350 438.0 64.630 25.969 122.768 0.66205 -0.42614 
3.375 438.0 64.076 25.870 123.144 0.65745 -0.42932 
3.400 438.0 63.852 25.888 123.581 0.65449 -0.43452 
3.425 438.0 62.330 25.887 123.989 0.65135 -0.43916 
3.450 438.0 60.140 25.946 124.360 0.64954 -0.44409 
3.475 448.0 68.174 26.068 124.660 0.64938 -0.44898 
3.500 448.0 64.881 26.122 124.903 0.64841 -0.45239 
3.525 448.0 62.009 26.172 125.143 0.64738 -0.45571 
3.550 458.0 70.505 26.279 125.436 0.64689 -0.46034 
3.575 458.0 67.524 26.345 125.580 0.64688 -0.46277 
3.600 458.0 65.508 26.429 125.786 0.64666 -0.46613 
3.625 458.0 63.540 26.606 126.064 0.64738 -0.47145 
3.650 458.0 62.263 26.722 126.255 0.64775 -0.47504 
3.675 458.0 60.820 26.883 126.476 0.64860 -0.47951 
3.700 458.0 59.711 27.096 126.668 0.65050 -0.48431 
3.725 468.0 69.052 27.328 126.833 0.65287 -0.48899 
3.750 468.0 67.323 27.578 126.930 0.65606 -0.49311 
3.775 468.0 65.891 27.753 126.983 0.65838 -0.49581 
3.800 468.0 62.907 28.019 127.072 0.66177 -0.49998 
3.825 468.0 59.929 28.164 126.991 0.66473 -0.50074 
3.850 481.0 68.914 28.537 127.030 0.67008 -0.50550 
3.875 481.0 63.529 28.752 127.067 0.67300 -0.50838 
3.900 491.0 68.586 29.085 126.825 0.68010 -0.50924 
3.925 491.0 63.985 29.292 126.704 0.68421 -0.51006 
3.950 491.0 60.063 29.611 126.483 0.69079 -0.51083 
3.975 505.0 69.858 29.951 126.188 0.69826 -0.51082 
4.000 505.0 65.920 30.246 125.919 0.70480 -0.51055 
4.025 505.0 62.468 30.557 125.643 0.71155 -0.51023 
4.050 505.0 59.756 30.846 125.178 0.71962 -0.50722 
4.075 519.0 69.755 31.234 124.825 0.72793 -0.50640 
4.100 519.0 66.531 31.577 124.316 0.73692 -0.50299 
4.125 519.0 63.398 31.973 123.776 0.74675 -0.49945 
4.150 519.0 61.014 32.158 123.224 0.75388 -0.49378 
4.175 530.0 69.961 32.589 122.596 0.76466 -0.48894 
4.200 530.0 68.783 32.877 121.873 0.77432 -0.48145 
4.225 530.0 68.379 33.378 120.995 0.78763 -0.47316 
4.250 530.0 67.663 33.530 120.021 0.79736 -0.46075 
4.275 530.0 66.341 33.963 118.912 0.81119 -0.44803 
4.300 540.0 68.147 34.049 117.211 0.82513 -0.42427 
4.325 540.0 74.988 34.270 115.879 0.83735 -0.40621 
4.350 529.0 69.489 34.355 114.615 0.84708 -0.38809 
4.375 529.0 75.215 34.362 113.328 0.85567 -0.36901 
4.400 520.0 70.555 34.260 112.186 0.86165 -0.35138 
4.425 520.0 74.940 34.074 111.342 0.86450 -0.33779 
4.450 520.0 77.716 33.970 110.440 0.86844 -0.32366 
4.475 511.0 71.249 33.832 109.483 0.87201 -0.30851 
4.500 511.0 73.788 33.662 108.596 0.87452 -0.29424 
4.525 511.0 75.472 33.492 107.836 0.87615 -0.28192 
4.550 511.0 76.733 33.414 107.205 0.87819 -0.27192 
4.575 511.0 76.197 33.264 106.579 0.87913 -0.26172 
4.600 511.0 75.741 33.035 106.203 0.87774 -0.25506 
4.625 511.0 75.296 32.889 105.667 0.87808 -0.24627 
4.650 511.0 74.579 32.845 105.000 0.88028 -0.23587 
4.675 511.0 72.297 32.782 104.577 0.88112 -0.22914 
4.700 511.0 71.258 32.677 104.119 0.88145 -0.22172 
4.725 511.0 68.997 32.539 103.730 0.88097 -0.21524 
4.750 511.0 66.844 32.392 103.320 0.88037 -0.20844 
4.775 511.0 64.005 32.318 102.916 0.88075 -0.20197 
4.800 511.0 61.896 32.295 102.420 0.88212 -0.19426 
4.825 521.0 68.615 32.170 101.915 0.88196 -0.18610 
4.850 521.0 65.836 32.069 101.363 0.88220 -0.17729 
4.875 521.0 63.218 32.065 100.965 0.88335 -0.17114 
4.900 531.0 69.764 32.024 100.516 0.88406 -0.16411 
4.925 531.0 66.852 31.872 100.109 0.88290 -0.15741 
4.950 531.0 64.789 31.814 99.699 0.88313 -0.15094 
4.975 542.0 71.697 31.710 99.145 0.88294 -0.14214 
5.000 542.0 68.654 31.723 98.810 0.88395 -0.13701 
5.025 542.0 65.525 31.561 98.444 0.88230 -0.13098 
5.050 542.0 61.338 31.496 98.119 0.88201 -0.12583 
5.075 553.0 68.620 31.374 97.612 0.88116 -0.11777 
5.100 553.0 64.551 31.315 97.273 0.88091 -0.11243 
5.125 553.0 59.842 31.271 96.882 0.88096 -0.10633 
5.150 568.0 69.132 31.159 96.656 0.87956 -0.10264 
5.175 568.0 64.475 31.010 96.263 0.87785 -0.09634 
5.200 579.0 69.388 31.043 95.787 0.87915 -0.08910 
5.225 579.0 65.413 30.940 95.626 0.87771 -0.08647 
5.250 579.0 60.460 30.875 95.075 0.87745 -0.07793 
5.275 593.0 67.243 30.822 94.857 0.87686 -0.07451 
5.300 593.0 63.637 30.815 94.210 0.87753 -0.06460 
5.325 593.0 58.916 30.726 94.207 0.87606 -0.06445 
5.350 610.0 68.466 30.588 93.608 0.87437 -0.05513 
5.375 610.0 64.022 30.483 93.149 0.87301 -0.04802 
5.400 622.0 69.187 30.320 92.945 0.87040 -0.04477 
5.425 622.0 64.199 30.257 92.303 0.86977 -0.03497 
5.450 636.0 70.612 30.218 92.424 0.86903 -0.03679 
5.475 636.0 65.810 30.050 92.200 0.86626 -0.03328 
5.500 636.0 61.497 30.055 91.513 0.86667 -0.02289 
5.525 655.0 70.528 29.951 91.138 0.86499 -0.01719 
5.550 655.0 65.176 29.823 91.193 0.86273 -0.01797 
5.575 655.0 59.895 29.658 90.769 0.85991 -0.01155 
5.600 671.0 66.558 29.695 89.892 0.86065 0.00162 
5.625 671.0 61.150 29.457 90.330 0.85637 -0.00493 
5.650 687.0 66.545 29.451 89.507 0.85626 0.00737 
5.675 687.0 60.764 29.399 89.566 0.85532 0.00647 
5.700 703.0 66.116 29.315 89.654 0.85381 0.00516 
5.725 717.0 69.824 29.099 89.199 0.84979 0.01188 
5.750 717.0 63.291 29.072 88.537 0.84909 0.02169 
5.775 734.0 68.000 28.957 88.803 0.84707 0.01770 
5.800 734.0 61.366 29.029 88.138 0.84813 0.02757 
5.825 752.0 65.777 28.734 88.162 0.84266 0.02705 
5.850 752.0 59.226 28.710 87.525 0.84185 0.03639 
5.875 780.0 68.572 28.662 87.989 0.84122 0.02954 
5.900 780.0 61.765 28.377 86.943 0.83513 0.04460 
5.925 780.0 54.128 28.418 86.650 0.83568 0.04892 
5.950 780.0 48.467 28.051 86.736 0.82868 0.04726 
5.975 780.0 42.541 28.100 86.764 0.82965 0.04690 
6.000 780.0 38.365 28.031 86.483 0.82807 0.05089 
6.025 780.0 34.099 27.895 85.665 0.82462 0.06251 
6.050 780.0 30.663 27.676 86.208 0.82085 0.05441 
6.075 780.0 27.516 27.763 86.825 0.82312 0.04566 
6.100 780.0 24.726 27.759 86.314 0.82260 0.05299 
6.125 780.0 21.972 27.713 85.478 0.82083 0.06491 
6.150 780.0 20.067 27.446 85.280 0.81529 0.06731 
6.175 780.0 18.115 27.309 85.760 0.81307 0.06028 
6.200 780.0 16.448 27.379 86.274 0.81500 0.05307 
6.225 780.0 14.930 27.181 85.929 0.81067 0.05770 
6.250 780.0 13.578 26.978 85.696 0.80629 0.06068 
6.275 780.0 12.430 27.526 87.659 0.81898 0.03348 
6.300 780.0 11.301 27.349 86.915 0.81493 0.04392 
6.325 780.0 10.200 27.097 84.831 0.80770 0.07307 
6.350 780.0 9.165 27.444 87.143 0.81702 0.04077 
6.375 780.0 8.174 27.043 86.966 0.80876 0.04287 
6.400 780.0 7.341 26.746 85.963 0.80178 0.05658 
6.425 780.0 6.533 27.538 85.226 0.81708 0.06824 
6.450 780.0 5.842 27.295 87.548 0.81428 0.03487 
6.475 780.0 5.007 27.413 88.684 0.81718 0.01877 
6.500 780.0 4.559 28.234 91.544 0.83327 -0.02246 

# MINIMA:
0.600 374.0 0.000 0.000 0.000 0.00000 -0.91606 

# MAXIMA:
6.500 3898.9 79.981 39.257 159.192 0.88406 0.07307 

# PEAKS:

# END SPECTRUM


# SPECTRUM:
4

# START TIME:
12:08:45

# END TIME:
12:19:25

# THETA ANGLE:
0.00 ø

# INCIDENCE ANGLE:
70.00 ø

# ACCUMULATION NUMBER:
1

# ELLIPSOMETRIC CONFIGURATION:
0.00 ø :Modulator
+45.00 øAnalyser

# INTEGRATION TIME:
500 ms

# FIRST POINT:
0.6000 eV

# LAST POINT:
6.5000 eV

# INCREMENT:
0.0250 eV

# NUMBER OF POINTS:
237

# DATA:
eV Hv S0 Psi Delta Is Ic 
0.600 3702.1 61.168 37.544 152.393 0.44779 -0.85630 
0.625 3105.2 78.871 37.275 151.602 0.45840 -0.84788 
0.650 2603.5 77.604 37.082 151.009 0.46627 -0.84150 
0.675 2501.9 78.743 36.892 150.148 0.47796 -0.83280 
0.700 1905.0 78.750 36.726 149.360 0.48853 -0.82476 
0.725 1606.6 77.283 36.589 148.562 0.49926 -0.81669 
0.750 1505.0 73.810 36.450 147.852 0.50859 -0.80925 
0.775 1308.1 69.777 36.268 147.023 0.51922 -0.80022 
0.800 908.1 74.390 36.133 146.212 0.52970 -0.79161 
0.825 1206.5 72.412 35.917 145.570 0.53722 -0.78371 
0.850 1206.5 70.408 35.840 144.820 0.54695 -0.77592 
0.875 806.5 65.879 35.704 144.130 0.55537 -0.76806 
0.900 908.1 62.961 35.525 143.299 0.56525 -0.75831 
0.925 1104.9 76.103 35.434 142.609 0.57371 -0.75063 
0.950 1104.9 69.955 35.347 141.956 0.58161 -0.74325 
0.975 806.5 74.745 35.226 141.162 0.59098 -0.73403 
1.000 1104.9 76.277 35.050 140.495 0.59816 -0.72550 
1.025 1003.3 65.176 34.965 139.860 0.60551 -0.71805 
1.050 628.7 61.940 34.798 138.935 0.61570 -0.70666 
1.075 1028.7 74.123 34.661 138.261 0.62284 -0.69812 
1.100 927.1 67.234 34.547 137.477 0.63140 -0.68848 
1.125 927.1 70.654 34.430 136.843 0.63796 -0.68039 
1.150 825.5 68.347 34.328 136.173 0.64499 -0.67196 
1.175 825.5 74.381 34.237 135.485 0.65219 -0.66333 
1.200 927.1 76.167 34.070 134.755 0.65907 -0.65345 
1.225 628.7 68.173 33.873 134.047 0.66523 -0.64347 
1.250 431.8 70.397 33.701 133.276 0.67216 -0.63289 
1.275 730.3 73.958 33.556 132.691 0.67715 -0.62466 
1.300 647.7 60.550 33.520 132.008 0.68418 -0.61622 
1.325 844.6 70.282 33.383 131.450 0.68875 -0.60829 
1.350 546.1 75.594 33.259 130.866 0.69362 -0.60011 
1.375 946.2 80.485 33.037 130.099 0.69920 -0.58876 
1.400 647.7 69.047 33.000 129.535 0.70456 -0.58151 
1.425 1447.8 69.888 32.878 129.032 0.70829 -0.57421 
1.450 2546.4 63.493 32.878 128.351 0.71506 -0.56575 
1.475 780.0 0.000 0.000 0.000 0.00000 0.00000 
1.500 494.0 67.224 32.347 126.915 0.72280 -0.54299 
1.525 580.0 63.301 32.100 126.351 0.72512 -0.53364 
1.550 537.0 73.033 32.069 125.803 0.72981 -0.52642 
1.575 574.0 66.831 31.935 125.228 0.73338 -0.51788 
1.600 574.0 76.474 31.833 124.630 0.73745 -0.50930 
1.625 526.0 72.352 31.668 124.147 0.73959 -0.50163 
1.650 526.0 67.104 31.520 123.619 0.74225 -0.49349 
1.675 516.0 70.281 31.448 123.003 0.74654 -0.48487 
1.700 504.0 68.300 31.364 122.424 0.75028 -0.47658 
1.725 495.0 70.196 31.163 121.846 0.75230 -0.46728 
1.750 486.0 70.009 31.095 121.309 0.75570 -0.45964 
1.775 476.0 70.134 30.949 120.792 0.75776 -0.45157 
1.800 460.0 69.847 30.854 120.241 0.76071 -0.44348 
1.825 460.0 76.105 30.764 119.716 0.76345 -0.43575 
1.850 447.0 68.485 30.634 119.172 0.76566 -0.42742 
1.875 447.0 74.939 30.532 118.703 0.76763 -0.42031 
1.900 433.0 68.301 30.372 118.186 0.76898 -0.41209 
1.925 433.0 74.940 30.301 117.725 0.77120 -0.40533 
1.950 423.0 70.178 30.132 117.201 0.77229 -0.39692 
1.975 423.0 77.004 30.082 116.751 0.77461 -0.39046 
2.000 413.0 69.934 30.016 116.233 0.77708 -0.38293 
2.025 413.0 72.649 29.895 115.782 0.77817 -0.37587 
2.050 413.0 71.949 29.834 115.278 0.78048 -0.36855 
2.075 401.0 70.048 29.629 114.747 0.78054 -0.35978 
2.100 401.0 74.087 29.622 114.291 0.78328 -0.35351 
2.125 401.0 77.403 29.505 113.782 0.78447 -0.34570 
2.150 393.0 69.508 29.408 113.237 0.78611 -0.33754 
2.175 393.0 72.203 29.295 112.737 0.78714 -0.32986 
2.200 393.0 74.365 29.239 112.247 0.78898 -0.32273 
2.225 393.0 77.364 29.166 111.684 0.79088 -0.31448 
2.250 393.0 79.355 29.071 111.159 0.79209 -0.30658 
2.275 385.0 70.365 28.977 110.555 0.79366 -0.29760 
2.300 385.0 71.035 28.787 109.987 0.79324 -0.28851 
2.325 385.0 72.437 28.669 109.414 0.79401 -0.27984 
2.350 385.0 73.788 28.477 108.842 0.79331 -0.27071 
2.375 385.0 75.037 28.345 108.260 0.79362 -0.26185 
2.400 385.0 76.522 28.096 107.669 0.79171 -0.25220 
2.425 377.0 68.578 27.826 107.105 0.78910 -0.24284 
2.450 377.0 78.209 27.621 106.731 0.78680 -0.23651 
2.475 377.0 78.612 27.274 106.460 0.78122 -0.23082 
2.500 377.0 63.660 26.738 106.102 0.77208 -0.22287 
2.525 377.0 64.383 26.496 106.149 0.76704 -0.22210 
2.550 377.0 63.012 26.268 106.141 0.76245 -0.22066 
2.575 377.0 67.100 26.139 106.322 0.75911 -0.22230 
2.600 377.0 62.399 26.002 106.465 0.75574 -0.22336 
2.625 377.0 74.126 25.966 106.666 0.75422 -0.22579 
2.650 377.0 77.617 25.932 106.631 0.75364 -0.22511 
2.675 377.0 67.398 25.887 106.628 0.75273 -0.22480 
2.700 377.0 61.604 25.872 106.493 0.75295 -0.22293 
2.725 385.0 67.420 25.840 106.476 0.75235 -0.22251 
2.750 385.0 70.632 25.843 106.467 0.75244 -0.22241 
2.775 385.0 61.679 25.806 106.250 0.75252 -0.21934 
2.800 385.0 60.950 25.808 106.081 0.75319 -0.21712 
2.825 385.0 60.225 25.762 105.887 0.75297 -0.21430 
2.850 395.0 68.893 25.779 105.767 0.75376 -0.21282 
2.875 395.0 67.149 25.761 105.517 0.75432 -0.20943 
2.900 395.0 65.891 25.752 105.277 0.75500 -0.20622 
2.925 395.0 64.746 25.714 105.106 0.75481 -0.20375 
2.950 395.0 64.406 25.671 104.908 0.75460 -0.20089 
2.975 395.0 61.182 25.646 104.598 0.75514 -0.19667 
3.000 403.0 68.569 25.604 104.386 0.75498 -0.19365 
3.025 403.0 65.800 25.575 104.106 0.75531 -0.18980 
3.050 403.0 63.091 25.502 103.809 0.75471 -0.18551 
3.075 403.0 60.389 25.472 103.604 0.75474 -0.18265 
3.100 403.0 76.779 25.418 103.424 0.75415 -0.18000 
3.125 403.0 74.318 25.369 103.214 0.75375 -0.17699 
3.150 403.0 69.957 25.276 102.906 0.75270 -0.17247 
3.175 403.0 65.472 25.203 102.603 0.75200 -0.16813 
3.200 403.0 62.399 25.096 102.441 0.75015 -0.16549 
3.225 412.0 69.876 25.014 102.271 0.74885 -0.16288 
3.250 412.0 66.726 24.898 102.061 0.74690 -0.15959 
3.275 412.0 62.802 24.711 101.920 0.74315 -0.15688 
3.300 421.0 67.659 24.578 101.850 0.74037 -0.15534 
3.325 421.0 60.711 24.373 101.891 0.73565 -0.15491 
3.350 431.0 67.509 24.236 102.103 0.73200 -0.15697 
3.375 431.0 67.037 24.110 102.378 0.72837 -0.15985 
3.400 431.0 66.628 24.044 102.735 0.72585 -0.16404 
3.425 431.0 64.946 23.987 103.048 0.72366 -0.16771 
3.450 431.0 62.797 23.954 103.415 0.72183 -0.17216 
3.475 431.0 60.031 23.988 103.694 0.72176 -0.17586 
3.500 442.0 68.806 24.034 104.105 0.72150 -0.18130 
3.525 442.0 65.425 24.043 104.291 0.72111 -0.18369 
3.550 442.0 62.918 24.041 104.581 0.72013 -0.18732 
3.575 442.0 60.203 24.105 104.881 0.72060 -0.19148 
3.600 452.0 68.785 24.161 105.141 0.72098 -0.19508 
3.625 452.0 66.412 24.260 105.541 0.72180 -0.20073 
3.650 452.0 64.711 24.314 105.823 0.72201 -0.20462 
3.675 452.0 63.101 24.445 106.127 0.72379 -0.20929 
3.700 452.0 61.798 24.577 106.394 0.72572 -0.21351 
3.725 452.0 60.710 24.729 106.683 0.72793 -0.21815 
3.750 462.0 69.761 24.927 107.041 0.73085 -0.22402 
3.775 462.0 67.534 25.101 107.333 0.73342 -0.22890 
3.800 462.0 64.401 25.311 107.495 0.73723 -0.23238 
3.825 462.0 60.746 25.510 107.669 0.74069 -0.23594 
3.850 473.0 67.696 25.768 107.918 0.74503 -0.24090 
3.875 473.0 62.115 25.961 107.935 0.74891 -0.24240 
3.900 484.0 67.728 26.304 108.136 0.75503 -0.24730 
3.925 484.0 62.721 26.522 108.193 0.75915 -0.24949 
3.950 495.0 69.118 26.857 108.243 0.76555 -0.25234 
3.975 495.0 64.926 27.115 108.230 0.77065 -0.25383 
4.000 495.0 61.094 27.447 108.172 0.77729 -0.25513 
4.025 506.0 68.486 27.770 108.095 0.78374 -0.25609 
4.050 506.0 64.777 28.087 107.932 0.79038 -0.25577 
4.075 506.0 61.246 28.439 107.740 0.79769 -0.25519 
4.100 517.0 68.143 28.845 107.541 0.80586 -0.25472 
4.125 517.0 64.922 29.178 107.378 0.81246 -0.25427 
4.150 517.0 62.588 29.610 107.029 0.82147 -0.25159 
4.175 517.0 60.649 29.995 106.691 0.82946 -0.24871 
4.200 517.0 59.356 30.398 106.143 0.83847 -0.24270 
4.225 517.0 58.614 30.893 105.631 0.84859 -0.23743 
4.250 529.0 68.695 31.482 104.817 0.86111 -0.22779 
4.275 529.0 67.283 32.001 103.980 0.87218 -0.21713 
4.300 529.0 69.561 32.298 102.265 0.88269 -0.19190 
4.325 529.0 76.979 32.576 101.384 0.88957 -0.17912 
4.350 518.0 71.531 33.004 99.817 0.90023 -0.15577 
4.375 518.0 76.671 33.257 98.481 0.90713 -0.13526 
4.400 508.0 70.502 33.127 97.479 0.90756 -0.11914 
4.425 508.0 75.230 33.257 96.095 0.91197 -0.09739 
4.450 499.0 69.260 33.169 95.114 0.91228 -0.08164 
4.475 499.0 71.784 33.234 93.787 0.91484 -0.06056 
4.500 499.0 74.656 33.130 92.742 0.91433 -0.04378 
4.525 499.0 76.705 33.077 91.741 0.91421 -0.02779 
4.550 499.0 78.684 32.963 90.898 0.91291 -0.01430 
4.575 490.0 68.754 32.860 90.089 0.91155 -0.00141 
4.600 490.0 68.859 32.659 89.450 0.90859 0.00872 
4.625 490.0 68.074 32.580 88.727 0.90726 0.02017 
4.650 490.0 66.841 32.477 88.249 0.90555 0.02768 
4.675 490.0 66.545 32.334 87.806 0.90317 0.03460 
4.700 490.0 64.758 32.333 87.211 0.90275 0.04397 
4.725 490.0 63.740 32.186 86.770 0.90019 0.05081 
4.750 490.0 61.772 32.037 86.205 0.89739 0.05953 
4.775 490.0 59.708 32.039 85.611 0.89675 0.06883 
4.800 503.0 70.223 31.986 85.284 0.89554 0.07388 
4.825 503.0 67.599 31.928 84.773 0.89395 0.08178 
4.850 503.0 64.663 31.888 84.191 0.89247 0.09079 
4.875 503.0 61.975 31.848 83.843 0.89128 0.09615 
4.900 513.0 68.948 31.900 83.245 0.89102 0.10554 
4.925 513.0 66.228 31.760 82.850 0.88812 0.11141 
4.950 513.0 63.389 31.738 82.294 0.88667 0.11998 
4.975 524.0 70.436 31.666 82.046 0.88502 0.12365 
5.000 524.0 67.644 31.651 81.520 0.88361 0.13174 
5.025 524.0 64.440 31.620 81.140 0.88224 0.13752 
5.050 524.0 61.175 31.590 80.638 0.88054 0.14517 
5.075 537.0 68.998 31.504 80.279 0.87827 0.15045 
5.100 537.0 65.228 31.414 80.055 0.87627 0.15364 
5.125 537.0 60.880 31.462 79.309 0.87495 0.16517 
5.150 551.0 69.118 31.377 78.990 0.87269 0.16980 
5.175 551.0 64.748 31.259 78.849 0.87041 0.17157 
5.200 551.0 59.995 31.229 78.460 0.86875 0.17738 
5.225 567.0 69.418 31.208 78.031 0.86706 0.18381 
5.250 567.0 64.393 31.065 77.834 0.86415 0.18630 
5.275 567.0 60.615 31.182 77.164 0.86377 0.19681 
5.300 581.0 67.473 31.083 76.824 0.86103 0.20157 
5.325 581.0 63.465 31.033 76.508 0.85911 0.20612 
5.350 581.0 59.088 31.029 76.052 0.85738 0.21294 
5.375 596.0 67.677 30.861 75.397 0.85220 0.22204 
5.400 596.0 63.485 30.926 75.171 0.85236 0.22567 
5.425 610.0 69.806 30.891 74.935 0.85086 0.22902 
5.450 610.0 65.573 30.733 74.674 0.84729 0.23221 
5.475 610.0 60.881 30.772 74.134 0.84570 0.24036 
5.500 625.0 67.895 30.620 73.844 0.84202 0.24393 
5.525 625.0 62.382 30.768 73.307 0.84207 0.25252 
5.550 641.0 70.134 30.435 73.492 0.83750 0.24821 
5.575 641.0 64.885 30.302 72.916 0.83280 0.25595 
5.600 641.0 59.816 30.206 72.627 0.82992 0.25965 
5.625 656.0 64.966 30.322 72.170 0.82973 0.26688 
5.650 669.0 68.524 30.283 72.020 0.82840 0.26884 
5.675 669.0 62.462 30.205 71.467 0.82449 0.27640 
5.700 686.0 68.776 30.167 71.514 0.82409 0.27551 
5.725 686.0 62.332 29.947 70.938 0.81767 0.28254 
5.750 704.0 68.677 29.962 70.523 0.81583 0.28854 
5.775 704.0 61.431 29.960 69.944 0.81285 0.29675 
5.800 727.0 70.473 29.766 70.221 0.81106 0.29167 
5.825 727.0 63.152 29.686 69.505 0.80603 0.30128 
5.850 746.0 69.123 29.746 69.565 0.80735 0.30080 
5.875 746.0 61.382 29.348 69.935 0.80256 0.29314 
5.900 780.0 76.252 29.457 68.767 0.79826 0.31016 
5.925 780.0 67.696 29.340 68.892 0.79697 0.30765 
5.950 780.0 59.778 29.706 67.952 0.79789 0.32315 
5.975 780.0 53.477 29.131 68.378 0.79062 0.31338 
6.000 780.0 48.187 29.009 68.403 0.78867 0.31221 
6.025 780.0 42.045 28.774 67.800 0.78129 0.31884 
6.050 780.0 37.611 29.027 68.687 0.79051 0.30841 
6.075 780.0 34.059 28.856 67.641 0.78181 0.32159 
6.100 780.0 30.523 28.753 68.123 0.78271 0.31428 
6.125 780.0 27.472 28.580 68.917 0.78394 0.30223 
6.150 780.0 24.596 28.310 67.716 0.77268 0.31665 
6.175 780.0 22.180 28.086 67.616 0.76811 0.31635 
6.200 780.0 20.143 28.260 67.491 0.77054 0.31932 
6.225 780.0 18.267 28.348 67.343 0.77128 0.32195 
6.250 780.0 16.455 27.989 67.634 0.76648 0.31539 
6.275 780.0 15.061 27.991 67.820 0.76753 0.31290 
6.300 780.0 13.685 28.264 68.334 0.77523 0.30796 
6.325 780.0 12.413 27.649 67.649 0.76036 0.31263 
6.350 780.0 11.053 27.828 66.703 0.75834 0.32655 
6.375 780.0 9.793 27.154 68.856 0.75750 0.29296 
6.400 780.0 8.825 27.712 68.669 0.76697 0.29950 
6.425 780.0 7.821 27.003 69.049 0.75558 0.28929 
6.450 780.0 6.884 27.770 67.708 0.76291 0.31277 
6.475 780.0 6.088 27.599 70.619 0.77460 0.27250 
6.500 780.0 5.331 27.392 71.334 0.77400 0.26148 

# MINIMA:
0.600 377.0 0.000 0.000 0.000 0.00000 -0.85630 

# MAXIMA:
6.500 3702.1 80.485 37.544 152.393 0.91484 0.32655 

# PEAKS:

# END SPECTRUM


# SPECTRUM:
5

# START TIME:
12:20:13

# END TIME:
12:30:47

# THETA ANGLE:
0.00 ø

# INCIDENCE ANGLE:
75.00 ø

# ACCUMULATION NUMBER:
1

# ELLIPSOMETRIC CONFIGURATION:
0.00 ø :Modulator
+45.00 øAnalyser

# INTEGRATION TIME:
500 ms

# FIRST POINT:
0.6000 eV

# LAST POINT:
6.5000 eV

# INCREMENT:
0.0250 eV

# NUMBER OF POINTS:
237

# DATA:
eV Hv S0 Psi Delta Is Ic 
0.600 2902.0 62.651 35.247 141.728 0.58384 -0.74002 
0.625 2400.3 79.321 34.855 140.530 0.59622 -0.72406 
0.650 2000.3 79.070 34.617 139.866 0.60271 -0.71487 
0.675 1898.7 78.114 34.385 138.474 0.61797 -0.69784 
0.700 1498.6 75.221 34.267 137.394 0.62999 -0.68497 
0.725 1397.0 80.192 34.124 136.478 0.63960 -0.67348 
0.750 1295.4 72.676 33.927 135.453 0.64974 -0.66009 
0.775 1193.8 76.501 33.732 134.230 0.66183 -0.64428 
0.800 793.8 76.311 33.634 133.330 0.67091 -0.63290 
0.825 1092.2 77.090 33.484 132.298 0.68070 -0.61934 
0.850 1092.2 74.560 33.360 131.402 0.68902 -0.60750 
0.875 692.2 61.082 33.233 130.451 0.69768 -0.59483 
0.900 889.0 77.912 33.092 129.375 0.70719 -0.58038 
0.925 990.6 72.788 32.946 128.457 0.71477 -0.56768 
0.950 990.6 65.471 32.846 127.284 0.72510 -0.55206 
0.975 692.2 64.304 32.774 126.489 0.73186 -0.54134 
1.000 990.6 68.299 32.597 125.634 0.73777 -0.52885 
1.025 990.6 74.032 32.498 124.642 0.74561 -0.51516 
1.050 596.9 64.797 32.377 123.677 0.75269 -0.50154 
1.075 997.0 78.618 32.245 122.735 0.75917 -0.48804 
1.100 895.4 71.031 32.168 121.494 0.76857 -0.47087 
1.125 895.4 74.830 32.130 120.994 0.77216 -0.46385 
1.150 793.8 72.013 31.950 119.902 0.77848 -0.44768 
1.175 793.8 78.440 31.791 119.063 0.78280 -0.43504 
1.200 793.8 61.666 31.817 118.078 0.79053 -0.42171 
1.225 596.9 68.486 31.610 117.322 0.79316 -0.40976 
1.250 400.1 65.816 31.547 116.423 0.79860 -0.39683 
1.275 698.5 76.306 31.415 115.407 0.80361 -0.38171 
1.300 603.3 61.117 31.345 114.616 0.80779 -0.37011 
1.325 800.1 68.719 31.198 113.696 0.81145 -0.35614 
1.350 501.7 73.939 31.037 112.896 0.81394 -0.34375 
1.375 901.7 78.258 30.996 112.166 0.81764 -0.33311 
1.400 603.3 67.461 30.930 111.498 0.82045 -0.32315 
1.425 1403.4 67.307 30.844 110.757 0.82323 -0.31200 
1.450 2501.9 62.536 30.814 110.033 0.82664 -0.30140 
1.475 780.0 0.000 0.000 0.000 0.00000 0.00000 
1.500 477.0 67.530 30.417 108.033 0.83032 -0.27031 
1.525 563.0 64.673 30.271 107.416 0.83080 -0.26061 
1.550 519.0 72.194 30.200 106.561 0.83343 -0.24783 
1.575 555.0 65.969 30.079 105.934 0.83408 -0.23812 
1.600 555.0 76.135 29.992 105.371 0.83491 -0.22952 
1.625 509.0 71.948 29.903 104.581 0.83650 -0.21760 
1.650 509.0 65.934 29.811 103.800 0.83781 -0.20579 
1.675 500.0 69.721 29.765 103.133 0.83936 -0.19583 
1.700 490.0 69.146 29.707 102.426 0.84070 -0.18524 
1.725 479.0 68.916 29.555 101.680 0.84038 -0.17373 
1.750 479.0 78.486 29.547 101.186 0.84171 -0.16644 
1.775 463.0 71.076 29.416 100.460 0.84144 -0.15534 
1.800 448.0 71.351 29.357 99.814 0.84207 -0.14567 
1.825 448.0 77.107 29.310 99.135 0.84291 -0.13555 
1.850 436.0 70.124 29.222 98.464 0.84285 -0.12542 
1.875 436.0 75.926 29.149 97.916 0.84269 -0.11718 
1.900 423.0 69.895 29.041 97.275 0.84197 -0.10749 
1.925 423.0 76.320 28.997 96.658 0.84228 -0.09831 
1.950 413.0 70.051 28.896 96.103 0.84133 -0.08996 
1.975 413.0 77.458 28.852 95.475 0.84145 -0.08065 
2.000 403.0 69.640 28.811 94.820 0.84154 -0.07096 
2.025 403.0 72.297 28.744 94.301 0.84090 -0.06325 
2.050 403.0 70.940 28.729 93.731 0.84121 -0.05485 
2.075 392.0 69.566 28.624 93.122 0.83977 -0.04580 
2.100 392.0 73.927 28.591 92.552 0.83956 -0.03741 
2.125 392.0 76.677 28.527 91.968 0.83868 -0.02882 
2.150 392.0 79.768 28.498 91.354 0.83840 -0.01982 
2.175 384.0 70.484 28.428 90.753 0.83723 -0.01101 
2.200 384.0 72.715 28.405 90.173 0.83686 -0.00252 
2.225 384.0 75.116 28.383 89.529 0.83641 0.00687 
2.250 384.0 77.157 28.330 88.866 0.83525 0.01654 
2.275 384.0 78.806 28.313 88.283 0.83472 0.02503 
2.300 377.0 69.692 28.226 87.574 0.83268 0.03528 
2.325 377.0 70.974 28.133 86.838 0.83037 0.04587 
2.350 377.0 72.170 27.976 86.094 0.82664 0.05644 
2.375 377.0 73.131 27.904 85.410 0.82451 0.06619 
2.400 377.0 74.052 27.688 84.676 0.81935 0.07635 
2.425 377.0 77.478 27.502 83.987 0.81468 0.08582 
2.450 366.0 71.499 27.266 83.389 0.80902 0.09376 
2.475 366.0 70.946 27.007 82.942 0.80302 0.09943 
2.500 366.0 71.771 26.540 82.315 0.79230 0.10691 
2.525 366.0 71.553 26.276 82.173 0.78651 0.10812 
2.550 366.0 70.358 26.039 82.142 0.78145 0.10785 
2.575 366.0 73.807 25.896 82.145 0.77841 0.10740 
2.600 366.0 69.156 25.752 82.208 0.77543 0.10611 
2.625 358.0 69.893 25.708 82.188 0.77445 0.10625 
2.650 358.0 71.914 25.652 82.217 0.77329 0.10570 
2.675 358.0 62.530 25.602 82.264 0.77229 0.10491 
2.700 367.0 68.505 25.583 82.176 0.77172 0.10604 
2.725 367.0 63.849 25.585 82.036 0.77150 0.10793 
2.750 367.0 66.567 25.589 81.909 0.77134 0.10965 
2.775 375.0 67.608 25.594 81.771 0.77118 0.11152 
2.800 375.0 66.346 25.576 81.648 0.77056 0.11313 
2.825 375.0 65.279 25.608 81.413 0.77077 0.11639 
2.850 375.0 61.496 25.607 81.251 0.77042 0.11856 
2.875 375.0 59.849 25.610 81.041 0.77004 0.12139 
2.900 383.0 68.144 25.642 80.672 0.76994 0.12647 
2.925 383.0 66.450 25.661 80.406 0.76975 0.13011 
2.950 383.0 65.963 25.643 80.190 0.76887 0.13295 
2.975 383.0 62.163 25.610 80.023 0.76776 0.13505 
3.000 391.0 70.030 25.623 79.632 0.76710 0.14035 
3.025 391.0 66.999 25.630 79.274 0.76637 0.14517 
3.050 391.0 64.020 25.600 79.057 0.76517 0.14794 
3.075 391.0 61.328 25.581 78.808 0.76411 0.15119 
3.100 391.0 77.609 25.619 78.423 0.76389 0.15649 
3.125 391.0 75.315 25.556 78.217 0.76198 0.15895 
3.150 391.0 71.009 25.515 77.902 0.76021 0.16294 
3.175 391.0 66.759 25.444 77.605 0.75782 0.16654 
3.200 391.0 63.040 25.382 77.297 0.75558 0.17031 
3.225 391.0 60.043 25.251 77.093 0.75216 0.17237 
3.250 401.0 68.620 25.195 76.749 0.74989 0.17659 
3.275 401.0 64.483 25.068 76.434 0.74615 0.18004 
3.300 401.0 58.966 24.919 76.337 0.74260 0.18052 
3.325 414.0 66.877 24.799 76.064 0.73909 0.18340 
3.350 414.0 62.936 24.643 76.066 0.73568 0.18252 
3.375 414.0 62.168 24.486 76.218 0.73268 0.17971 
3.400 414.0 61.339 24.366 76.404 0.73056 0.17668 
3.425 414.0 59.312 24.262 76.730 0.72922 0.17198 
3.450 424.0 68.201 24.203 76.872 0.72831 0.16986 
3.475 424.0 64.785 24.207 77.081 0.72902 0.16723 
3.500 424.0 61.694 24.126 77.393 0.72809 0.16284 
3.525 434.0 69.093 24.159 77.579 0.72938 0.16065 
3.550 434.0 65.873 24.118 77.871 0.72924 0.15673 
3.575 434.0 62.919 24.094 78.120 0.72936 0.15344 
3.600 443.0 70.108 24.138 78.277 0.73078 0.15165 
3.625 443.0 67.398 24.105 78.656 0.73102 0.14665 
3.650 443.0 65.123 24.156 78.997 0.73306 0.14254 
3.675 443.0 63.340 24.187 79.327 0.73457 0.13844 
3.700 443.0 61.518 24.257 79.716 0.73709 0.13374 
3.725 452.0 69.742 24.343 80.025 0.73975 0.13010 
3.750 452.0 66.975 24.449 80.429 0.74306 0.12529 
3.775 452.0 64.462 24.558 80.819 0.74635 0.12063 
3.800 452.0 61.153 24.683 81.192 0.74994 0.11620 
3.825 462.0 67.085 24.814 81.527 0.75353 0.11226 
3.850 462.0 62.466 24.959 81.889 0.75748 0.10795 
3.875 475.0 69.442 25.179 82.198 0.76293 0.10453 
3.900 475.0 64.021 25.360 82.539 0.76750 0.10052 
3.925 485.0 68.451 25.628 82.800 0.77380 0.09775 
3.950 485.0 63.672 25.790 83.097 0.77779 0.09416 
3.975 485.0 59.629 26.081 83.292 0.78433 0.09225 
4.000 498.0 67.880 26.293 83.563 0.78925 0.08904 
4.025 498.0 64.245 26.611 83.731 0.79618 0.08747 
4.050 498.0 60.721 26.856 83.929 0.80154 0.08524 
4.075 509.0 68.060 27.205 83.956 0.80868 0.08563 
4.100 509.0 63.806 27.530 84.127 0.81544 0.08388 
4.125 509.0 60.193 27.865 84.180 0.82213 0.08380 
4.150 520.0 67.541 28.289 84.310 0.83051 0.08276 
4.175 520.0 65.504 28.728 84.419 0.83898 0.08199 
4.200 520.0 64.230 29.180 84.194 0.84699 0.08612 
4.225 520.0 63.028 29.655 84.138 0.85544 0.08782 
4.250 520.0 61.776 30.232 83.841 0.86502 0.09334 
4.275 520.0 59.669 30.820 83.426 0.87419 0.10074 
4.300 520.0 76.267 31.257 82.208 0.87893 0.12027 
4.325 509.0 70.881 31.563 81.656 0.88256 0.12945 
4.350 509.0 76.130 32.175 80.491 0.88907 0.14892 
4.375 498.0 69.511 32.529 79.359 0.89114 0.16743 
4.400 498.0 73.740 32.810 78.107 0.89127 0.18771 
4.425 498.0 77.747 32.975 76.987 0.88974 0.20562 
4.450 487.0 68.842 33.104 75.974 0.88774 0.22177 
4.475 487.0 71.323 33.274 74.718 0.88496 0.24179 
4.500 487.0 73.487 33.258 73.762 0.88058 0.25647 
4.525 487.0 75.554 33.320 72.678 0.87639 0.27334 
4.550 487.0 77.171 33.343 71.768 0.87224 0.28733 
4.575 487.0 77.713 33.288 70.902 0.86708 0.30022 
4.600 487.0 78.027 33.227 70.045 0.86170 0.31286 
4.625 487.0 77.232 33.109 69.404 0.85660 0.32190 
4.650 487.0 76.381 33.102 68.756 0.85281 0.33154 
4.675 487.0 75.156 33.022 68.285 0.84901 0.33812 
4.700 487.0 73.002 32.902 67.787 0.84445 0.34484 
4.725 487.0 72.150 32.872 67.233 0.84068 0.35282 
4.750 487.0 68.917 32.903 66.626 0.83730 0.36189 
4.775 487.0 66.331 32.836 66.200 0.83371 0.36771 
4.800 487.0 64.269 32.776 65.884 0.83089 0.37195 
4.825 487.0 61.579 32.805 65.221 0.82690 0.38171 
4.850 499.0 71.696 32.792 64.691 0.82317 0.38927 
4.875 499.0 67.807 32.813 64.367 0.82122 0.39405 
4.900 499.0 65.572 32.836 63.900 0.81829 0.40087 
4.925 499.0 62.376 32.871 63.387 0.81511 0.40841 
4.950 499.0 60.117 32.734 63.071 0.81108 0.41200 
4.975 512.0 71.048 32.807 62.602 0.80863 0.41911 
5.000 512.0 67.394 32.832 62.303 0.80675 0.42349 
5.025 512.0 63.439 32.650 61.942 0.80174 0.42732 
5.050 512.0 60.434 32.617 61.596 0.79871 0.43194 
5.075 526.0 70.474 32.703 61.067 0.79580 0.43990 
5.100 526.0 65.839 32.700 60.780 0.79354 0.44385 
5.125 526.0 61.667 32.664 60.341 0.78966 0.44966 
5.150 539.0 69.323 32.481 60.168 0.78597 0.45072 
5.175 539.0 64.729 32.453 59.828 0.78292 0.45517 
5.200 550.0 70.463 32.709 59.163 0.78081 0.46614 
5.225 550.0 65.463 32.554 59.123 0.77853 0.46552 
5.250 550.0 61.080 32.656 58.609 0.77560 0.47326 
5.275 563.0 68.122 32.605 58.283 0.77227 0.47729 
5.300 563.0 63.054 32.508 58.172 0.77014 0.47802 
5.325 574.0 68.510 32.631 57.611 0.76694 0.48651 
5.350 574.0 64.019 32.551 57.363 0.76383 0.48920 
5.375 574.0 59.724 32.269 57.056 0.75770 0.49100 
5.400 587.0 66.854 32.316 56.646 0.75474 0.49679 
5.425 587.0 62.420 32.372 56.386 0.75318 0.50068 
5.450 602.0 69.147 32.496 55.850 0.74998 0.50873 
5.475 602.0 64.835 32.160 55.917 0.74643 0.50504 
5.500 602.0 59.870 32.081 55.524 0.74195 0.50946 
5.525 619.0 68.792 32.061 55.246 0.73923 0.51289 
5.550 619.0 63.209 32.433 54.490 0.73694 0.52585 
5.575 632.0 68.312 32.272 54.384 0.73401 0.52581 
5.600 632.0 63.057 32.048 54.306 0.73054 0.52483 
5.625 647.0 68.447 32.187 53.836 0.72792 0.53205 
5.650 647.0 62.452 32.067 53.474 0.72308 0.53556 
5.675 663.0 68.894 32.362 52.952 0.72172 0.54481 
5.700 663.0 62.473 31.968 53.024 0.71765 0.54031 
5.725 679.0 68.146 32.113 52.578 0.71517 0.54723 
5.750 679.0 61.983 32.016 52.307 0.71141 0.54970 
5.775 695.0 66.204 31.889 52.368 0.71045 0.54775 
5.800 695.0 59.550 31.669 51.845 0.70273 0.55210 
5.825 718.0 68.426 31.603 51.524 0.69881 0.55539 
5.850 718.0 61.555 31.529 51.694 0.69954 0.55258 
5.875 735.0 65.308 31.253 51.522 0.69443 0.55194 
5.900 735.0 58.005 31.528 50.781 0.69064 0.56366 
5.925 759.0 65.663 31.423 50.973 0.69123 0.56029 
5.950 780.0 71.842 31.072 50.768 0.68484 0.55917 
5.975 780.0 63.188 31.197 50.930 0.68799 0.55851 
6.000 780.0 56.261 31.046 50.020 0.67716 0.56779 
6.025 780.0 50.013 30.707 50.542 0.67797 0.55804 
6.050 780.0 44.854 30.829 49.777 0.67201 0.56836 
6.075 780.0 40.354 30.557 49.976 0.67050 0.56310 
6.100 780.0 36.662 30.875 49.565 0.67049 0.57133 
6.125 780.0 32.305 30.426 49.606 0.66516 0.56598 
6.150 780.0 29.516 30.522 49.920 0.66950 0.56337 
6.175 780.0 26.584 30.165 49.692 0.66259 0.56208 
6.200 780.0 24.138 29.805 49.865 0.65948 0.55602 
6.225 780.0 21.848 30.084 48.860 0.65330 0.57072 
6.250 780.0 19.809 29.398 50.160 0.65675 0.54796 
6.275 780.0 18.027 29.348 49.469 0.64941 0.55526 
6.300 780.0 15.967 29.414 49.784 0.65335 0.55245 
6.325 780.0 14.570 29.565 49.380 0.65152 0.55881 
6.350 780.0 12.942 29.293 50.249 0.65613 0.54572 
6.375 780.0 11.396 28.991 50.521 0.65445 0.53908 
6.400 780.0 10.188 28.614 50.619 0.64991 0.53348 
6.425 780.0 9.267 28.216 50.802 0.64572 0.52660 
6.450 780.0 8.046 28.044 51.093 0.64579 0.52121 
6.475 780.0 7.163 28.191 52.205 0.65805 0.51034 
6.500 780.0 6.217 27.595 53.063 0.65627 0.49340 

# MINIMA:
0.600 358.0 0.000 0.000 0.000 0.00000 -0.74002 

# MAXIMA:
6.500 2902.0 80.192 35.247 141.728 0.89127 0.57133 

# PEAKS:

# END SPECTRUM

