## SPECTRUM TYPE:
Spectroscopic

## DATE:
1/30/2012

## COMMENTS:

## NUMBER OF SPECTRUM:
5

## ELLIPSOMETRIC CONFIGURATION:
0.00 ø :Modulator
+45.00 øAnalyser

## UNIT:
eV


# SPECTRUM:
1

# START TIME:
11:32:52

# END TIME:
11:44:44

# THETA ANGLE:
0.00 ø

# INCIDENCE ANGLE:
55.00 ø

# ACCUMULATION NUMBER:
1

# ELLIPSOMETRIC CONFIGURATION:
0.00 ø :Modulator
+45.00 øAnalyser

# INTEGRATION TIME:
500 ms

# FIRST POINT:
0.6000 eV

# LAST POINT:
6.5000 eV

# INCREMENT:
0.0250 eV

# NUMBER OF POINTS:
237

# DATA:
eV Hv S0 Psi Delta Is Ic
0.6 3898.9 30.418 41.605 167.478 0.21529 -0.96936 
0.625 4000.5 47.845 41.493 167.155 0.22065 -0.96768 
0.65 4000.5 56.405 41.307 166.882 0.22508 -0.96582 
0.675 4000.5 62.357 41.08 166.391 0.2331 -0.96284 
0.7 3898.9 79.437 40.997 166.075 0.23831 -0.96115 
0.725 2997.2 78.406 40.742 165.684 0.24455 -0.95826 
0.75 2698.8 78.311 40.733 165.298 0.25098 -0.95655 
0.775 2000.3 77.19 40.675 164.971 0.25636 -0.95481 
0.8 1098.6 69.239 40.724 164.602 0.26257 -0.95338 
0.825 1397 63.762 40.656 164.377 0.26622 -0.952 
0.85 1397 65.28 40.475 163.931 0.27335 -0.94896 
0.875 997 74.154 40.485 163.636 0.27825 -0.9476 
0.9 1098.6 71.342 40.289 163.248 0.28435 -0.94464 
0.925 1200.2 69.778 40.257 162.879 0.29036 -0.94262 
0.95 1200.2 65.473 40.176 162.563 0.29541 -0.94056 
0.975 901.7 74.522 40.268 162.216 0.30127 -0.93925 
1 1200.2 73.038 40.185 161.9 0.30631 -0.93712 
1.025 1098.6 66.222 39.938 161.551 0.31154 -0.93384 
1.05 698.5 62.8 39.943 161.212 0.31706 -0.932 
1.075 1098.6 70.95 39.846 160.856 0.32265 -0.92945 
1.1 997 64.562 39.803 160.544 0.32762 -0.92742 
1.125 997 68.145 39.599 160.21 0.33257 -0.92427 
1.15 895.4 67.92 39.483 159.832 0.3384 -0.92133 
1.175 895.4 73.901 39.487 159.562 0.34275 -0.91975 
1.2 997 75.405 39.368 159.216 0.34802 -0.91692 
1.225 698.5 71.758 39.273 158.897 0.35288 -0.91435 
1.25 438.2 62.479 39.136 158.557 0.35795 -0.91135 
1.275 736.6 65.837 39.09 158.296 0.36197 -0.90941 
1.3 736.6 73.236 38.777 157.858 0.36804 -0.90448 
1.325 838.2 61.963 38.86 157.656 0.37146 -0.90376 
1.35 539.8 67.714 38.635 157.347 0.37568 -0.90017 
1.375 939.8 72.209 38.59 157.076 0.3798 -0.89807 
1.4 641.4 62.714 38.63 156.856 0.38336 -0.89688 
1.425 1441.5 64.243 38.485 156.516 0.38824 -0.89355 
1.45 2641.6 60.774 38.625 156.145 0.39446 -0.89202 
1.475 692 76.054 38.164 155.82 0.398 -0.88641 
1.5 517 65.184 37.892 155.557 0.40111 -0.8825 
1.525 609 63.161 37.753 155.459 0.40213 -0.88071 
1.55 564 72.565 37.768 155.103 0.40765 -0.87831 
1.575 601 66.29 37.662 154.845 0.4112 -0.87563 
1.6 601 77.575 37.573 154.597 0.41464 -0.87313 
1.625 551 72.886 37.416 154.303 0.4185 -0.86971 
1.65 551 68.865 37.3 154.053 0.42182 -0.86692 
1.675 538 69.748 37.193 153.811 0.42504 -0.86424 
1.7 527 70.19 37.164 153.555 0.42877 -0.86208 
1.725 516 71.642 36.989 153.326 0.43147 -0.85887 
1.75 505 70.303 36.902 153.064 0.43502 -0.85613 
1.775 493 69.405 36.743 152.913 0.43656 -0.85359 
1.8 478 70.947 36.715 152.644 0.44044 -0.85129 
1.825 478 77.719 36.684 152.434 0.44341 -0.84939 
1.85 463 69.581 36.562 152.194 0.44639 -0.84644 
1.875 463 76.927 36.424 152.016 0.44835 -0.84381 
1.9 449 70.731 36.291 151.792 0.45099 -0.84083 
1.925 441 68.333 36.219 151.531 0.45446 -0.8381 
1.95 441 75.972 36.098 151.405 0.45569 -0.83597 
1.975 430 70.245 36 151.178 0.4585 -0.83323 
2 430 76.328 36.015 150.968 0.46162 -0.83169 
2.025 422 69.742 35.844 150.808 0.46303 -0.82878 
2.05 422 69.795 35.771 150.59 0.46579 -0.82632 
2.075 411 69.781 35.578 150.397 0.4675 -0.82287 
2.1 411 74.464 35.612 150.19 0.47067 -0.82151 
2.125 411 78.47 35.426 149.954 0.47299 -0.81774 
2.15 402 69.742 35.361 149.766 0.4753 -0.81553 
2.175 402 72.895 35.338 149.594 0.47761 -0.81387 
2.2 402 75.873 35.204 149.369 0.48001 -0.81065 
2.225 402 78.993 35.198 149.078 0.48408 -0.80814 
2.25 393 69.854 34.945 148.88 0.48532 -0.8039 
2.275 393 71.857 34.933 148.654 0.48841 -0.80185 
2.3 393 72.962 34.769 148.424 0.49058 -0.79819 
2.325 393 75.341 34.665 148.213 0.49286 -0.79529 
2.35 393 77.564 34.509 148 0.49479 -0.79182 
2.375 386 69.221 34.294 147.773 0.49647 -0.78755 
2.4 386 70.989 34.176 147.589 0.49818 -0.78469 
2.425 386 74.88 33.954 147.495 0.49792 -0.78143 
2.45 375 69.615 33.734 147.425 0.49731 -0.77837 
2.475 375 69.607 33.418 147.479 0.49426 -0.77522 
2.5 411 65.63 33.114 147.472 0.4921 -0.7716 
2.525 411 66.282 32.979 147.627 0.48898 -0.77131 
2.55 411 65.792 32.853 147.848 0.48504 -0.77167 
2.575 411 70.046 32.803 147.983 0.48284 -0.7722 
2.6 411 66.276 32.737 148.203 0.47938 -0.77324 
2.625 411 79.108 32.741 148.29 0.47822 -0.77401 
2.65 401 68.802 32.692 148.331 0.4773 -0.77374 
2.675 401 60.51 32.679 148.382 0.47651 -0.77401 
2.7 412 68.227 32.707 148.375 0.47682 -0.7743 
2.725 412 64.663 32.676 148.415 0.47604 -0.77425 
2.75 412 67.99 32.681 148.391 0.47641 -0.77412 
2.775 412 59.79 32.597 148.354 0.47625 -0.77276 
2.8 421 69.29 32.65 148.304 0.47734 -0.773 
2.825 421 69.127 32.611 148.268 0.47753 -0.77222 
2.85 421 66.038 32.584 148.192 0.47835 -0.77124 
2.875 421 64.51 32.541 148.136 0.47876 -0.77024 
2.9 421 63.482 32.543 148.072 0.47964 -0.76972 
2.925 421 62.743 32.5 147.978 0.48057 -0.7684 
2.95 421 62.816 32.428 147.919 0.48079 -0.76702 
2.975 421 59.89 32.39 147.813 0.4819 -0.76564 
3 430 68.323 32.342 147.813 0.48153 -0.76503 
3.025 430 65.884 32.325 147.768 0.482 -0.76444 
3.05 430 63.322 32.249 147.736 0.48181 -0.76321 
3.075 430 61.202 32.228 147.652 0.48275 -0.76224 
3.1 430 77.977 32.192 147.635 0.4827 -0.76163 
3.125 430 75.991 32.152 147.617 0.48262 -0.76097 
3.15 430 72.261 32.057 147.596 0.48212 -0.75957 
3.175 430 68.456 31.985 147.567 0.48192 -0.7584 
3.2 430 65.199 31.943 147.591 0.48126 -0.75807 
3.225 430 62.784 31.836 147.641 0.47971 -0.75709 
3.25 430 60.064 31.773 147.717 0.47817 -0.7569 
3.275 441 68.359 31.689 147.937 0.47458 -0.75761 
3.3 441 63.153 31.604 148.104 0.47167 -0.75787 
3.325 451 68.053 31.589 148.402 0.46757 -0.76011 
3.35 451 64.085 31.575 148.773 0.46254 -0.76294 
3.375 451 64.488 31.609 149.119 0.45819 -0.76617 
3.4 451 64.314 31.709 149.439 0.45471 -0.77006 
3.425 451 62.924 31.834 149.646 0.45291 -0.77338 
3.45 451 61.181 31.903 149.914 0.44982 -0.77641 
3.475 460 68.774 32.107 150.016 0.44999 -0.77992 
3.5 460 65.698 32.243 150.159 0.44906 -0.78282 
3.525 460 63.359 32.409 150.245 0.44913 -0.78565 
3.55 460 61.202 32.549 150.261 0.44994 -0.78756 
3.575 470 69.883 32.763 150.307 0.45085 -0.79063 
3.6 470 68.102 32.868 150.327 0.45132 -0.79211 
3.625 470 66.827 33.046 150.319 0.45268 -0.79425 
3.65 470 65.541 33.305 150.327 0.45437 -0.79747 
3.675 470 65.414 33.478 150.244 0.4567 -0.79887 
3.7 470 64.691 33.74 150.137 0.45996 -0.80109 
3.725 470 64.262 33.834 149.978 0.4628 -0.8009 
3.75 470 63.512 34.106 149.795 0.46716 -0.80249 
3.775 470 62.554 34.324 149.63 0.47088 -0.80355 
3.8 470 59.626 34.552 149.389 0.47571 -0.80404 
3.825 481 68.084 34.758 149.108 0.48096 -0.80388 
3.85 481 63.969 35.006 148.767 0.48729 -0.80356 
3.875 491 69.315 35.201 148.434 0.49316 -0.80267 
3.9 491 64.593 35.443 147.979 0.501 -0.80111 
3.925 491 60.592 35.543 147.549 0.5076 -0.79828 
3.95 503 69.108 35.895 147.081 0.51623 -0.7974 
3.975 503 65.054 36.056 146.584 0.52408 -0.79435 
4 503 62.403 36.179 146.014 0.53271 -0.79017 
4.025 503 59.661 36.213 145.421 0.54105 -0.78492 
4.05 516 69.387 36.508 144.875 0.55027 -0.78223 
4.075 516 66.888 36.661 144.268 0.55942 -0.77761 
4.1 516 63.688 36.731 143.637 0.56838 -0.77196 
4.125 516 61.05 36.767 142.956 0.57772 -0.76544 
4.15 516 59.096 36.917 142.228 0.5883 -0.7592 
4.175 527 67.935 37.035 141.562 0.59779 -0.7532 
4.2 527 67.492 36.994 140.817 0.60729 -0.74506 
4.225 527 66.974 37.064 139.932 0.61915 -0.7361 
4.25 527 66.442 37.076 139.117 0.62964 -0.72731 
4.275 527 64.847 37.196 138.255 0.64127 -0.7186 
4.3 557 65.6 36.763 136.977 0.65429 -0.70107 
4.325 557 71.498 36.63 136.223 0.66253 -0.69144 
4.35 557 76.679 36.602 135.563 0.67026 -0.68355 
4.375 547 71.054 36.358 135.048 0.67461 -0.67575 
4.4 547 74.373 36.184 134.53 0.67939 -0.66834 
4.425 547 77.357 36.009 134.161 0.68235 -0.66264 
4.45 547 79.354 35.877 133.771 0.68581 -0.65699 
4.475 537 70.104 35.722 133.407 0.68873 -0.65145 
4.5 537 71.271 35.584 133.092 0.69116 -0.64661 
4.525 537 71.931 35.474 132.748 0.69412 -0.6416 
4.55 537 72.089 35.383 132.386 0.69739 -0.63649 
4.575 537 71.136 35.226 131.948 0.70088 -0.62992 
4.6 537 70.167 35.14 131.686 0.703 -0.62604 
4.625 537 68.895 35.017 131.4 0.70503 -0.62157 
4.65 537 66.702 34.917 131.014 0.70829 -0.61602 
4.675 537 65.865 34.863 130.729 0.71085 -0.61206 
4.7 537 63.54 34.805 130.304 0.71484 -0.60631 
4.725 537 61.522 34.632 130.122 0.71514 -0.60268 
4.75 537 59.512 34.387 129.752 0.71666 -0.59608 
4.775 549 68.126 34.37 129.536 0.71874 -0.59325 
4.8 549 65.022 34.327 129.057 0.72326 -0.58687 
4.825 549 62.955 34.24 128.788 0.72513 -0.58277 
4.85 561 71.786 34.05 128.608 0.72505 -0.57896 
4.875 561 67.722 33.991 128.106 0.72948 -0.57211 
4.9 561 65.078 33.928 127.826 0.73162 -0.56803 
4.925 561 62.675 33.763 127.566 0.73245 -0.56337 
4.95 561 60.232 33.618 127.367 0.73286 -0.55964 
4.975 575 69.352 33.588 127.012 0.73599 -0.55485 
5 575 66.646 33.35 126.647 0.73689 -0.5482 
5.025 575 64.397 33.386 126.403 0.73962 -0.54535 
5.05 575 61.434 33.23 126.18 0.74 -0.5412 
5.075 590 69.665 33.088 125.97 0.74036 -0.53731 
5.1 590 65.299 32.932 125.735 0.74076 -0.53298 
5.125 590 61.525 32.953 125.441 0.74373 -0.52935 
5.15 604 68.798 32.809 125.341 0.74296 -0.52685 
5.175 604 64.511 32.745 125.04 0.74497 -0.52241 
5.2 617 70.303 32.647 124.776 0.74621 -0.51816 
5.225 617 65.967 32.471 124.482 0.74671 -0.51286 
5.25 617 61.406 32.43 124.246 0.74832 -0.50943 
5.275 634 70.88 32.267 124.048 0.74806 -0.50549 
5.3 634 66.485 32.19 123.721 0.74998 -0.50057 
5.325 634 61.923 32.105 123.445 0.7513 -0.49625 
5.35 648 68.324 31.935 123.382 0.74968 -0.49398 
5.375 648 64.395 31.795 123.102 0.75028 -0.48913 
5.4 648 60.62 31.613 122.761 0.75077 -0.48312 
5.425 662 66.514 31.527 122.618 0.75084 -0.48051 
5.45 662 62.078 31.458 122.457 0.75126 -0.47781 
5.475 676 68.241 31.468 122.529 0.7508 -0.47886 
5.5 676 63.131 31.313 122.193 0.75149 -0.47312 
5.525 690 68.897 31.118 121.748 0.75247 -0.4656 
5.55 690 64.098 31.166 121.737 0.75321 -0.46587 
5.575 705 69.389 30.903 121.575 0.75087 -0.46149 
5.6 705 64.087 30.813 121.415 0.75088 -0.45862 
5.625 719 67.905 30.638 121.244 0.74977 -0.45486 
5.65 719 62.462 30.53 121.196 0.74859 -0.45328 
5.675 734 67.186 30.258 120.73 0.74826 -0.44482 
5.7 748 70.256 30.19 120.968 0.74541 -0.44733 
5.725 748 63.195 30.24 120.582 0.74914 -0.44272 
5.75 748 58.371 29.791 120.283 0.74468 -0.43486 
5.775 771 65.55 29.917 120.661 0.74371 -0.44089 
5.8 771 59.062 29.709 120.346 0.74294 -0.43494 
5.825 780 58.602 29.32 119.956 0.73984 -0.42639 
5.85 780 52.967 29.499 120.555 0.73813 -0.43574 
5.875 780 47.434 29.27 119.906 0.73943 -0.4253 
5.9 780 42.704 29.073 119.027 0.7427 -0.41214 
5.925 780 37.982 29.099 120.034 0.73576 -0.42538 
5.95 780 33.895 28.743 120.27 0.72829 -0.42507 
5.975 780 30.026 28.948 120.069 0.7331 -0.42442 
6 780 27.345 28.749 119.476 0.73421 -0.41499 
6.025 780 23.878 28.731 120.725 0.7247 -0.43072 
6.05 780 21.701 28.589 119.981 0.72791 -0.41994 
6.075 780 19.506 29.085 119.991 0.73586 -0.42469 
6.1 780 17.654 28.357 119.879 0.72483 -0.41645 
6.125 780 15.816 28.356 120.375 0.72119 -0.4227 
6.15 780 14.395 28.648 120.107 0.72795 -0.4221 
6.175 780 13.112 28.32 120.113 0.72251 -0.41905 
6.2 780 11.871 28.676 120.466 0.72575 -0.42691 
6.225 780 11.025 27.946 119.662 0.71948 -0.40976 
6.25 780 10 28.073 119.404 0.72348 -0.40772 
6.275 780 9.1 28.893 119.867 0.7337 -0.42133 
6.3 780 8.354 29.06 120.598 0.73091 -0.43223 
6.325 780 7.4 28.51 120.052 0.72609 -0.42009 
6.35 780 6.719 28.586 120.547 0.72367 -0.42708 
6.375 780 6.061 28.74 120.538 0.72624 -0.42843 
6.4 780 5.45 29.217 121.836 0.72385 -0.430823 
6.425 780 4.872 28.716 120.846 0.72355 -0.43211 
6.45 780 4.275 29.81 119.907 0.74781 -0.43014 
6.475 780 3.795 29.867 120.488 0.74427 -0.4382 
6.5 780 3.347 30.59 120.638 0.75383 -0.44649 

# MINIMA:
0.600 375.0 3.347 27.946 119.027 0.21529 -0.96936

# MAXIMA:
6.500 4000.5 79.437 41.605 167.478 0.75383 -0.40772

# PEAKS:

# END SPECTRUM


# SPECTRUM:
2

# START TIME:
11:45:35

# END TIME:
11:56:18

# THETA ANGLE:
0.00 ø

# INCIDENCE ANGLE:
60.00 ø

# ACCUMULATION NUMBER:
1

# ELLIPSOMETRIC CONFIGURATION:
0.00 ø :Modulator
+45.00 øAnalyser

# INTEGRATION TIME:
500 ms

# FIRST POINT:
0.6000 eV

# LAST POINT:
6.5000 eV

# INCREMENT:
0.0250 eV

# NUMBER OF POINTS:
237

# DATA:
eV Hv S0 Psi Delta Is Ic
0.6 3898.9 40.606 40.594 163.952 0.27318 -0.94969 
0.625 3898.9 61.082 40.391 163.543 0.27964 -0.94665 
0.65 3898.9 70.193 40.226 163.127 0.28624 -0.94369 
0.675 3898.9 75.677 40.066 162.601 0.2946 -0.94013 
0.7 3200.4 80.6 39.969 162.174 0.30141 -0.93735 
0.725 2501.9 77.811 39.839 161.758 0.30797 -0.93437 
0.75 2305.1 78.064 39.752 161.246 0.31613 -0.93106 
0.775 1803.4 78.24 39.654 160.807 0.32304 -0.92802 
0.8 1104.9 76.577 39.647 160.338 0.33062 -0.9253 
0.825 1403.4 71.668 39.305 159.883 0.33717 -0.9205 
0.85 1403.4 73.185 39.3 159.484 0.34355 -0.9181 
0.875 1003.3 80.001 39.265 159.01 0.35105 -0.915 
0.9 1003.3 61.558 39.18 158.619 0.35706 -0.91203 
0.925 1104.9 62.428 39.1 158.163 0.3641 -0.90863 
0.95 1206.5 72.967 38.969 157.741 0.37043 -0.90505 
0.975 806.5 64.719 38.916 157.261 0.37785 -0.90155 
1 1104.9 67.003 38.699 156.809 0.3843 -0.89706 
1.025 1104.9 74.219 38.7 156.434 0.39017 -0.89453 
1.05 704.9 71.092 38.507 155.923 0.39753 -0.88965 
1.075 1104.9 78.805 38.497 155.542 0.4034 -0.88692 
1.1 1003.3 70.891 38.376 155.116 0.40959 -0.88302 
1.125 1003.3 75.166 38.333 154.735 0.41529 -0.87997 
1.15 901.7 73.358 38.077 154.232 0.4221 -0.87439 
1.175 901.7 80.209 38.072 153.831 0.42818 -0.87139 
1.2 901.7 64.147 37.832 153.42 0.43351 -0.86647 
1.225 704.9 79.293 37.744 152.983 0.43976 -0.86245 
1.25 425.5 62.013 37.671 152.644 0.44456 -0.85926 
1.275 723.9 66.979 37.735 152.238 0.45089 -0.85659 
1.3 723.9 74.567 37.534 151.82 0.45629 -0.8517 
1.325 825.5 63.306 37.46 151.454 0.4614 -0.84819 
1.35 527.1 69.47 37.171 151.08 0.46563 -0.84281 
1.375 927.1 75.531 37.152 150.699 0.47115 -0.83954 
1.4 628.7 65.642 37.157 150.38 0.47583 -0.83695 
1.425 1428.8 70.489 36.803 149.939 0.48055 -0.83031 
1.45 2330.5 60.958 37.228 149.613 0.48733 -0.83108 
1.475 780 0 0 0 0.491848 -0.824005 
1.5 503 61.783 36.283 148.723 0.49533 -0.8154 
1.525 608 73.141 36.155 148.415 0.499 -0.81158 
1.55 553 73.334 36.098 148.143 0.50252 -0.80869 
1.575 590 67.22 36.01 147.716 0.50804 -0.80412 
1.6 590 78.89 35.934 147.513 0.51043 -0.80162 
1.625 540 72.453 35.718 147.1 0.51491 -0.79594 
1.65 540 67.868 35.55 146.758 0.51862 -0.79127 
1.675 528 69.331 35.513 146.405 0.52326 -0.78771 
1.7 517 69.465 35.396 146.066 0.52716 -0.7835 
1.725 507 71.199 35.251 145.831 0.52943 -0.77993 
1.75 496 69.116 35.167 145.49 0.5335 -0.77596 
1.775 486 70.228 35.014 145.185 0.53659 -0.77163 
1.8 470 69.775 34.916 144.848 0.54045 -0.7675 
1.825 470 76.638 34.823 144.565 0.54358 -0.7639 
1.85 457 69.756 34.716 144.265 0.54681 -0.75998 
1.875 457 76.558 34.612 143.994 0.54964 -0.75635 
1.9 444 71.386 34.431 143.759 0.55141 -0.75227 
1.925 444 78.794 34.384 143.45 0.5551 -0.74881 
1.95 431 69.898 34.202 143.174 0.55731 -0.74426 
1.975 431 77.72 34.122 142.892 0.56034 -0.7407 
2 420 69.601 34.044 142.621 0.56323 -0.73723 
2.025 420 72.399 33.921 142.357 0.56563 -0.73335 
2.05 420 72.463 33.853 142.053 0.56897 -0.72964 
2.075 408 71.274 33.637 141.81 0.57028 -0.72495 
2.1 408 75.782 33.614 141.505 0.57393 -0.72166 
2.125 401 70.205 33.468 141.209 0.57641 -0.71714 
2.15 401 73.221 33.399 140.949 0.57905 -0.71378 
2.175 401 76.299 33.31 140.689 0.5815 -0.71019 
2.2 401 79.312 33.209 140.354 0.58475 -0.7057 
2.225 391 68.682 33.108 140.031 0.58782 -0.70131 
2.25 391 71.249 32.97 139.741 0.5901 -0.69683 
2.275 391 73.079 32.898 139.401 0.59356 -0.69254 
2.3 391 74.667 32.686 139.087 0.59534 -0.68696 
2.325 391 77.019 32.559 138.781 0.59778 -0.68237 
2.35 391 78.83 32.392 138.487 0.59963 -0.67745 
2.375 383 69.123 32.194 138.138 0.60177 -0.67158 
2.4 383 70.669 32.017 137.902 0.60272 -0.6671 
2.425 383 74.102 31.747 137.699 0.60228 -0.66188 
2.45 373 70.077 31.564 137.542 0.60217 -0.65811 
2.475 373 70.385 31.228 137.543 0.59852 -0.65416 
2.5 401 66.767 30.786 137.543 0.59364 -0.64882 
2.525 401 67.072 30.592 137.729 0.58934 -0.64834 
2.55 401 66.576 30.457 137.889 0.586 -0.64829 
2.575 401 70.701 30.391 138.067 0.58323 -0.64927 
2.6 401 66.822 30.304 138.264 0.58002 -0.65017 
2.625 393 69.105 30.279 138.352 0.57873 -0.65074 
2.65 393 71.163 30.257 138.448 0.57739 -0.65143 
2.675 393 62.676 30.243 138.443 0.57728 -0.65119 
2.7 402 68.361 30.203 138.466 0.57656 -0.65091 
2.725 402 64.497 30.2 138.491 0.57624 -0.65112 
2.75 402 67.914 30.173 138.457 0.57632 -0.65043 
2.775 402 59.249 30.15 138.372 0.57702 -0.64928 
2.8 411 69.208 30.147 138.328 0.57749 -0.6488 
2.825 411 68.571 30.127 138.2 0.57871 -0.64725 
2.85 411 65.816 30.107 138.103 0.57957 -0.64602 
2.875 411 64.312 30.069 138.014 0.58012 -0.64461 
2.9 411 63.037 30.033 137.873 0.5813 -0.64272 
2.925 411 62.104 29.956 137.787 0.58136 -0.64085 
2.95 411 62.056 29.927 137.672 0.5823 -0.63932 
2.975 411 59.088 29.844 137.612 0.58198 -0.63762 
3 420 67.587 29.819 137.489 0.58305 -0.63604 
3.025 420 65.119 29.774 137.381 0.5837 -0.63436 
3.05 420 62.382 29.726 137.286 0.58419 -0.63277 
3.075 420 60.184 29.674 137.176 0.58477 -0.63096 
3.1 420 76.42 29.622 137.115 0.58482 -0.62967 
3.125 420 74.343 29.573 137.043 0.58501 -0.62828 
3.15 420 70.715 29.423 136.982 0.58384 -0.6257 
3.175 420 66.945 29.362 136.884 0.58415 -0.62389 
3.2 420 63.601 29.244 136.877 0.58276 -0.62225 
3.225 420 60.665 29.179 136.854 0.5822 -0.62114 
3.25 430 69.292 29.075 136.942 0.57995 -0.62065 
3.275 430 65.242 28.967 137.056 0.57734 -0.62034 
3.3 430 60.349 28.844 137.2 0.57423 -0.62011 
3.325 443 67.919 28.744 137.479 0.56994 -0.62152 
3.35 443 64.054 28.746 137.848 0.56595 -0.6252 
3.375 443 63.955 28.705 138.314 0.56033 -0.62922 
3.4 443 63.919 28.723 138.623 0.55715 -0.63247 
3.425 443 62.542 28.77 138.989 0.55368 -0.63669 
3.45 443 60.532 28.883 139.25 0.55215 -0.6408 
3.475 454 70.023 29.017 139.509 0.55086 -0.64519 
3.5 454 66.989 29.174 139.69 0.55069 -0.64913 
3.525 454 64.39 29.265 139.791 0.55062 -0.65138 
3.55 454 61.982 29.376 140.01 0.54943 -0.65501 
3.575 463 69.207 29.548 140.12 0.55016 -0.65845 
3.6 463 67.496 29.661 140.27 0.54972 -0.66143 
3.625 463 65.817 29.845 140.407 0.55021 -0.66527 
3.65 463 64.61 29.992 140.442 0.55144 -0.66759 
3.675 463 63.647 30.19 140.548 0.5524 -0.67126 
3.7 463 63.347 30.408 140.615 0.55397 -0.67479 
3.725 463 62.277 30.664 140.548 0.55752 -0.67748 
3.75 463 61.226 30.869 140.543 0.55974 -0.68006 
3.775 463 59.787 31.088 140.421 0.56349 -0.68164 
3.8 475 69.244 31.372 140.297 0.56788 -0.68394 
3.825 475 66.046 31.611 140.16 0.57194 -0.68549 
3.85 475 62.555 31.875 139.951 0.57709 -0.68655 
3.875 485 67.456 32.162 139.746 0.58237 -0.68784 
3.9 485 62.486 32.396 139.373 0.58912 -0.68669 
3.925 496 68.901 32.72 139.06 0.59598 -0.68706 
3.95 496 64.978 32.941 138.617 0.60338 -0.6848 
3.975 496 61.517 33.131 138.152 0.61072 -0.68189 
4 508 69.723 33.461 137.848 0.61739 -0.68203 
4.025 508 66.802 33.606 137.309 0.62512 -0.67765 
4.05 508 63.467 33.983 136.733 0.63535 -0.67498 
4.075 508 61.218 34.109 136.232 0.64235 -0.67059 
4.1 518 67.679 34.455 135.549 0.65339 -0.66603 
4.125 518 64.548 34.603 134.883 0.66239 -0.6597 
4.15 518 62.361 34.882 134.189 0.67278 -0.65401 
4.175 518 61.21 35.022 133.45 0.68239 -0.64643 
4.2 518 60.649 35.27 132.608 0.69395 -0.63831 
4.225 518 60.421 35.361 131.676 0.70504 -0.62763 
4.25 518 59.854 35.484 130.592 0.71785 -0.61509 
4.275 529 68.94 35.686 129.568 0.73049 -0.60362 
4.3 546 67.327 35.631 128.072 0.74551 -0.58396 
4.325 546 73.826 35.631 126.813 0.75816 -0.56745 
4.35 546 79.963 35.637 125.936 0.76682 -0.55581 
4.375 532 70.157 35.453 124.995 0.77413 -0.54195 
4.4 532 74.361 35.259 124.212 0.77962 -0.53006 
4.425 523 68.86 35.041 123.6 0.7831 -0.52028 
4.45 523 71.136 34.896 122.806 0.78877 -0.50845 
4.475 523 73.299 34.68 122.358 0.7905 -0.50085 
4.5 523 74.087 34.515 121.797 0.79362 -0.49201 
4.525 523 76.034 34.377 121.27 0.79664 -0.48379 
4.55 523 76.752 34.276 120.812 0.79937 -0.47675 
4.575 523 76.154 34.142 120.475 0.80068 -0.47117 
4.6 523 74.672 33.959 120.004 0.80247 -0.46338 
4.625 523 73.48 33.827 119.752 0.80298 -0.45899 
4.65 523 72.48 33.731 119.132 0.80678 -0.44964 
4.675 523 70.552 33.658 118.716 0.80916 -0.4433 
4.7 523 68.527 33.614 118.437 0.81079 -0.43908 
4.725 523 67.137 33.459 117.976 0.81244 -0.43156 
4.75 523 64.551 33.308 117.659 0.81297 -0.42608 
4.775 523 62.132 33.185 117.34 0.81381 -0.42076 
4.8 523 59.182 33.218 116.761 0.81844 -0.41272 
4.825 537 70.151 33.062 116.552 0.81799 -0.40875 
4.85 537 66.615 32.845 116.085 0.81851 -0.40071 
4.875 537 63.624 32.857 115.677 0.82149 -0.39496 
4.9 537 61.729 32.749 115.354 0.8223 -0.38966 
4.925 537 59.113 32.691 115.033 0.82371 -0.38468 
4.95 550 68.808 32.555 114.544 0.82515 -0.37681 
4.975 550 64.509 32.476 114.192 0.82638 -0.37126 
5 550 62.173 32.358 113.928 0.82649 -0.36674 
5.025 562 70.121 32.269 113.419 0.82849 -0.35885 
5.05 562 66.43 32.104 113.264 0.82717 -0.35562 
5.075 562 62.312 31.986 113.024 0.827 -0.35146 
5.1 573 68.682 31.891 112.579 0.82835 -0.34445 
5.125 573 64.178 31.859 112.305 0.82954 -0.3403 
5.15 584 69.592 31.744 111.956 0.82995 -0.33457 
5.175 584 64.509 31.636 111.613 0.83036 -0.32898 
5.2 584 60.906 31.557 111.246 0.83129 -0.32321 
5.225 601 69.785 31.442 110.957 0.83121 -0.31835 
5.25 601 65.633 31.43 110.733 0.83226 -0.31504 
5.275 601 61.231 31.273 110.215 0.83272 -0.30662 
5.3 618 70.804 31.226 110.098 0.83263 -0.30466 
5.325 618 66.55 31.093 109.808 0.83213 -0.29972 
5.35 618 62.195 31.055 109.462 0.83335 -0.29448 
5.375 632 68.633 30.867 109.285 0.83133 -0.29089 
5.4 632 64.435 30.825 108.94 0.83242 -0.28565 
5.425 644 69.226 30.468 108.631 0.82827 -0.27924 
5.45 644 64.718 30.503 108.109 0.83134 -0.27187 
5.475 644 60.491 30.373 107.956 0.82996 -0.26897 
5.5 660 67.171 30.183 107.73 0.82791 -0.26469 
5.525 660 62.655 30.271 107.446 0.83067 -0.26105 
5.55 677 69.944 30.12 107.292 0.82888 -0.25805 
5.575 677 64.606 30.044 107.004 0.8289 -0.25348 
5.6 690 69.329 29.841 106.693 0.82687 -0.24796 
5.625 690 63.733 29.675 106.602 0.82443 -0.24581 
5.65 690 58.003 29.619 106.586 0.82354 -0.24528 
5.675 714 68.619 29.472 106.133 0.82292 -0.23804 
5.7 714 62.65 29.456 106.199 0.82238 -0.2389 
5.725 732 68.153 29.254 105.485 0.82176 -0.22767 
5.75 732 62.984 29.222 105.317 0.82185 -0.2251 
5.775 747 65.527 29.018 105.059 0.81925 -0.22042 
5.8 761 68.15 28.941 105.057 0.81788 -0.22002 
5.825 761 61.291 28.947 104.63 0.8196 -0.21394 
5.85 777 63.421 28.601 104.655 0.81324 -0.21267 
5.875 780 58.966 28.354 104.638 0.80875 -0.21124 
5.9 780 52.585 28.64 103.948 0.81652 -0.2028 
5.925 780 46.48 28.468 104.643 0.81085 -0.21185 
5.95 780 41.476 28.335 104.059 0.8105 -0.20297 
5.975 780 36.85 27.977 103.704 0.805 -0.1963 
6 780 33.47 28.125 104.183 0.80613 -0.20372 
6.025 780 29.434 28.105 103.576 0.80786 -0.19508 
6.05 780 26.507 27.777 104.195 0.79948 -0.20223 
6.075 780 23.801 27.645 103.838 0.79818 -0.19661 
6.1 780 21.507 27.744 103.186 0.80228 -0.18797 
6.125 780 19.398 27.713 104.035 0.79882 -0.19968 
6.15 780 17.126 27.649 103.711 0.7987 -0.19487 
6.175 780 15.79 27.507 103.373 0.79707 -0.1895 
6.2 780 14.275 27.477 103.273 0.79682 -0.18797 
6.225 780 13.204 27.317 103.584 0.79266 -0.19152 
6.25 780 11.926 27.001 103.546 0.78653 -0.18949 
6.275 780 10.841 26.892 104.066 0.7826 -0.19609 
6.3 780 9.907 27.536 104.086 0.79523 -0.19954 
6.325 780 8.988 27.171 104.197 0.78769 -0.19927 
6.35 780 7.984 27.617 103.718 0.79806 -0.19481 
6.375 780 7.216 26.828 104.568 0.77958 -0.2026 
6.4 780 6.388 28.063 105.676 0.79938 -0.22434 
6.425 780 5.71 26.88 104.393 0.78124 -0.20048 
6.45 780 4.986 28.816 105.625 0.81342 -0.2275 
6.475 780 4.503 27.782 104.73 0.79764 -0.20971 
6.5 780 3.968 28.561 105.377 0.80976 -0.22269 

# MINIMA:
0.600 373.0 0.000 0.000 0.000 0.00000 -0.94969

# MAXIMA:
6.500 3898.9 80.600 40.594 163.952 0.83335 0.00000

# PEAKS:

# END SPECTRUM


# SPECTRUM:
3

# START TIME:
11:57:09

# END TIME:
12:07:54

# THETA ANGLE:
0.00 ø

# INCIDENCE ANGLE:
65.00 ø

# ACCUMULATION NUMBER:
1

# ELLIPSOMETRIC CONFIGURATION:
0.00 ø :Modulator
+45.00 øAnalyser

# INTEGRATION TIME:
500 ms

# FIRST POINT:
0.6000 eV

# LAST POINT:
6.5000 eV

# INCREMENT:
0.0250 eV

# NUMBER OF POINTS:
237

# DATA:
eV Hv S0 Psi Delta Is Ic
0.6 3898.9 52.693 39.257 159.192 0.34812 -0.91606 
0.625 3898.9 78.968 39.017 158.586 0.35717 -0.91074 
0.65 3302 78.524 38.919 158.154 0.36377 -0.90735 
0.675 3105.2 78.08 38.734 157.496 0.37363 -0.90184 
0.7 2406.7 78.217 38.561 156.885 0.38269 -0.89659 
0.725 2006.6 78.774 38.36 156.238 0.39216 -0.89075 
0.75 1905 79.981 38.248 155.641 0.40106 -0.8858 
0.775 1505 73.616 38.15 155.113 0.40885 -0.88133 
0.8 1003.3 72.403 38.054 154.5 0.41792 -0.87618 
0.825 1301.8 70.206 37.926 154.042 0.42444 -0.87184 
0.85 1301.8 69.675 37.804 153.492 0.43231 -0.86679 
0.875 901.7 68.78 37.745 152.911 0.44085 -0.86191 
0.9 1003.3 66.665 37.561 152.293 0.44937 -0.85565 
0.925 1104.9 66.622 37.416 151.677 0.45792 -0.84962 
0.95 1104.9 62.817 37.397 151.206 0.4648 -0.84567 
0.975 806.5 68.043 37.188 150.501 0.47422 -0.8382 
1 1104.9 70.55 37.059 150.063 0.47999 -0.8335 
1.025 1104.9 77.845 37.004 149.528 0.48749 -0.82852 
1.05 704.9 75.29 36.811 148.885 0.4958 -0.82139 
1.075 1003.3 65.06 36.759 148.413 0.50226 -0.81684 
1.1 1003.3 74.76 36.642 147.794 0.51044 -0.81038 
1.125 1003.3 79.148 36.559 147.305 0.51689 -0.80529 
1.15 901.7 77.722 36.423 146.754 0.52385 -0.79911 
1.175 800.1 64.593 36.242 146.189 0.53066 -0.79236 
1.2 901.7 67.678 36.088 145.621 0.53756 -0.7857 
1.225 622.3 61.267 35.938 145.147 0.54311 -0.77991 
1.25 425.5 64.554 35.911 144.561 0.55089 -0.77407 
1.275 723.9 68 35.759 144.186 0.55497 -0.76909 
1.3 723.9 74.855 35.663 143.529 0.56313 -0.76182 
1.325 825.5 63.801 35.432 143.033 0.56813 -0.75483 
1.35 527.1 70.038 35.361 142.699 0.57203 -0.75086 
1.375 927.1 75.255 35.251 142.161 0.57827 -0.74445 
1.4 628.7 65.507 35.086 141.662 0.58353 -0.73786 
1.425 1428.8 69.519 35.115 141.35 0.58774 -0.73494 
1.45 2425.7 62.357 35.139 140.729 0.59586 -0.72875 
1.475 780 0 0 0 0.600857 -0.719542 
1.5 502 67.492 34.423 139.623 0.60416 -0.71047 
1.525 602 73.826 34.233 139.25 0.6072 -0.70469 
1.55 547 73.404 34.136 138.799 0.6119 -0.69895 
1.575 583 66.699 34.012 138.337 0.61644 -0.69279 
1.6 583 77.957 33.903 137.9 0.62076 -0.687 
1.625 535 72.957 33.79 137.516 0.62433 -0.68173 
1.65 535 68.683 33.588 137.105 0.62736 -0.67524 
1.675 522 69.215 33.52 136.612 0.63252 -0.66914 
1.7 512 69.51 33.446 136.155 0.63713 -0.66335 
1.725 501 69.781 33.298 135.805 0.63975 -0.65798 
1.75 491 68.746 33.164 135.31 0.64409 -0.65111 
1.775 481 69.796 32.928 134.98 0.64548 -0.64502 
1.8 466 69.665 32.877 134.557 0.6497 -0.63973 
1.825 466 76.363 32.787 134.199 0.65275 -0.63475 
1.85 455 71.856 32.673 133.715 0.65689 -0.62807 
1.875 447 68.361 32.546 133.365 0.65937 -0.62278 
1.9 447 78.389 32.424 132.986 0.66216 -0.61717 
1.925 435 70.491 32.276 132.609 0.66458 -0.6113 
1.95 435 77.883 32.126 132.301 0.66618 -0.6062 
1.975 423 70.236 32.046 131.908 0.66942 -0.60081 
2 423 75.872 31.937 131.571 0.6717 -0.59576 
2.025 415 68.585 31.792 131.132 0.67455 -0.58911 
2.05 415 68.121 31.719 130.747 0.67763 -0.58383 
2.075 407 71.727 31.58 130.414 0.67937 -0.57846 
2.1 407 76.06 31.5 130.025 0.6823 -0.57303 
2.125 400 70.124 31.349 129.647 0.68422 -0.56698 
2.15 400 73.303 31.283 129.271 0.6871 -0.5618 
2.175 400 76.197 31.183 128.885 0.68961 -0.55614 
2.2 400 78.993 31.107 128.47 0.69266 -0.55038 
2.225 393 71.97 30.992 128.045 0.69524 -0.54407 
2.25 393 74.369 30.85 127.622 0.69739 -0.53749 
2.275 393 76.258 30.774 127.178 0.70052 -0.5313 
2.3 393 77.97 30.568 126.767 0.70156 -0.5242 
2.325 393 79.95 30.432 126.333 0.70365 -0.51751 
2.35 385 70.29 30.19 125.848 0.70465 -0.50911 
2.375 385 71.603 30.045 125.437 0.70624 -0.50258 
2.4 385 73.416 29.819 125.029 0.70655 -0.49527 
2.425 385 76.729 29.552 124.731 0.70521 -0.48887 
2.45 374 70.671 29.262 124.441 0.70336 -0.48235 
2.475 374 70.65 28.947 124.311 0.69967 -0.47748 
2.5 392 66.239 28.487 124.206 0.69339 -0.47134 
2.525 392 66.666 28.251 124.373 0.68828 -0.4708 
2.55 392 65.557 28.08 124.546 0.68414 -0.47101 
2.575 392 69.455 27.968 124.69 0.68115 -0.47148 
2.6 392 65.709 27.897 124.88 0.67846 -0.47294 
2.625 392 78.399 27.856 125.095 0.67602 -0.47502 
2.65 385 71.066 27.812 125.069 0.67552 -0.47422 
2.675 385 62.567 27.773 125.048 0.67507 -0.47353 
2.7 394 68.057 27.75 125.093 0.67431 -0.4738 
2.725 394 64.002 27.725 125.087 0.67397 -0.47344 
2.75 394 67.184 27.692 124.993 0.6742 -0.47197 
2.775 403 69.416 27.693 124.901 0.67498 -0.47089 
2.8 403 68.297 27.671 124.759 0.67577 -0.46896 
2.825 403 67.771 27.645 124.643 0.6763 -0.4673 
2.85 403 64.63 27.623 124.431 0.67767 -0.46454 
2.875 403 63.17 27.573 124.311 0.67781 -0.46257 
2.9 403 62.052 27.567 124.169 0.67886 -0.46082 
2.925 403 61.145 27.505 123.986 0.67929 -0.45796 
2.95 403 60.904 27.459 123.865 0.67951 -0.45601 
2.975 412 68.145 27.408 123.678 0.68014 -0.45322 
3 412 66.459 27.358 123.513 0.6806 -0.4507 
3.025 412 63.884 27.3 123.364 0.68078 -0.44828 
3.05 412 60.787 27.244 123.153 0.68148 -0.44515 
3.075 421 68.658 27.227 123.035 0.68212 -0.44356 
3.1 408 69.19 27.13 122.862 0.68178 -0.44043 
3.125 408 67.261 27.056 122.703 0.68174 -0.43773 
3.15 408 63.759 26.925 122.542 0.68071 -0.43436 
3.175 408 60.286 26.845 122.358 0.6807 -0.43129 
3.2 418 68.009 26.778 122.348 0.6796 -0.43042 
3.225 418 65.071 26.642 122.157 0.67864 -0.42665 
3.25 418 62.003 26.513 122.13 0.67655 -0.4249 
3.275 428 69.673 26.386 122.19 0.67385 -0.42418 
3.3 428 64.091 26.263 122.25 0.67119 -0.42349 
3.325 438 68.991 26.102 122.537 0.66618 -0.425 
3.35 438 64.63 25.969 122.768 0.66205 -0.42614 
3.375 438 64.076 25.87 123.144 0.65745 -0.42932 
3.4 438 63.852 25.888 123.581 0.65449 -0.43452 
3.425 438 62.33 25.887 123.989 0.65135 -0.43916 
3.45 438 60.14 25.946 124.36 0.64954 -0.44409 
3.475 448 68.174 26.068 124.66 0.64938 -0.44898 
3.5 448 64.881 26.122 124.903 0.64841 -0.45239 
3.525 448 62.009 26.172 125.143 0.64738 -0.45571 
3.55 458 70.505 26.279 125.436 0.64689 -0.46034 
3.575 458 67.524 26.345 125.58 0.64688 -0.46277 
3.6 458 65.508 26.429 125.786 0.64666 -0.46613 
3.625 458 63.54 26.606 126.064 0.64738 -0.47145 
3.65 458 62.263 26.722 126.255 0.64775 -0.47504 
3.675 458 60.82 26.883 126.476 0.6486 -0.47951 
3.7 458 59.711 27.096 126.668 0.6505 -0.48431 
3.725 468 69.052 27.328 126.833 0.65287 -0.48899 
3.75 468 67.323 27.578 126.93 0.65606 -0.49311 
3.775 468 65.891 27.753 126.983 0.65838 -0.49581 
3.8 468 62.907 28.019 127.072 0.66177 -0.49998 
3.825 468 59.929 28.164 126.991 0.66473 -0.50074 
3.85 481 68.914 28.537 127.03 0.67008 -0.5055 
3.875 481 63.529 28.752 127.067 0.673 -0.50838 
3.9 491 68.586 29.085 126.825 0.6801 -0.50924 
3.925 491 63.985 29.292 126.704 0.68421 -0.51006 
3.95 491 60.063 29.611 126.483 0.69079 -0.51083 
3.975 505 69.858 29.951 126.188 0.69826 -0.51082 
4 505 65.92 30.246 125.919 0.7048 -0.51055 
4.025 505 62.468 30.557 125.643 0.71155 -0.51023 
4.05 505 59.756 30.846 125.178 0.71962 -0.50722 
4.075 519 69.755 31.234 124.825 0.72793 -0.5064 
4.1 519 66.531 31.577 124.316 0.73692 -0.50299 
4.125 519 63.398 31.973 123.776 0.74675 -0.49945 
4.15 519 61.014 32.158 123.224 0.75388 -0.49378 
4.175 530 69.961 32.589 122.596 0.76466 -0.48894 
4.2 530 68.783 32.877 121.873 0.77432 -0.48145 
4.225 530 68.379 33.378 120.995 0.78763 -0.47316 
4.25 530 67.663 33.53 120.021 0.79736 -0.46075 
4.275 530 66.341 33.963 118.912 0.81119 -0.44803 
4.3 540 68.147 34.049 117.211 0.82513 -0.42427 
4.325 540 74.988 34.27 115.879 0.83735 -0.40621 
4.35 529 69.489 34.355 114.615 0.84708 -0.38809 
4.375 529 75.215 34.362 113.328 0.85567 -0.36901 
4.4 520 70.555 34.26 112.186 0.86165 -0.35138 
4.425 520 74.94 34.074 111.342 0.8645 -0.33779 
4.45 520 77.716 33.97 110.44 0.86844 -0.32366 
4.475 511 71.249 33.832 109.483 0.87201 -0.30851 
4.5 511 73.788 33.662 108.596 0.87452 -0.29424 
4.525 511 75.472 33.492 107.836 0.87615 -0.28192 
4.55 511 76.733 33.414 107.205 0.87819 -0.27192 
4.575 511 76.197 33.264 106.579 0.87913 -0.26172 
4.6 511 75.741 33.035 106.203 0.87774 -0.25506 
4.625 511 75.296 32.889 105.667 0.87808 -0.24627 
4.65 511 74.579 32.845 105 0.88028 -0.23587 
4.675 511 72.297 32.782 104.577 0.88112 -0.22914 
4.7 511 71.258 32.677 104.119 0.88145 -0.22172 
4.725 511 68.997 32.539 103.73 0.88097 -0.21524 
4.75 511 66.844 32.392 103.32 0.88037 -0.20844 
4.775 511 64.005 32.318 102.916 0.88075 -0.20197 
4.8 511 61.896 32.295 102.42 0.88212 -0.19426 
4.825 521 68.615 32.17 101.915 0.88196 -0.1861 
4.85 521 65.836 32.069 101.363 0.8822 -0.17729 
4.875 521 63.218 32.065 100.965 0.88335 -0.17114 
4.9 531 69.764 32.024 100.516 0.88406 -0.16411 
4.925 531 66.852 31.872 100.109 0.8829 -0.15741 
4.95 531 64.789 31.814 99.699 0.88313 -0.15094 
4.975 542 71.697 31.71 99.145 0.88294 -0.14214 
5 542 68.654 31.723 98.81 0.88395 -0.13701 
5.025 542 65.525 31.561 98.444 0.8823 -0.13098 
5.05 542 61.338 31.496 98.119 0.88201 -0.12583 
5.075 553 68.62 31.374 97.612 0.88116 -0.11777 
5.1 553 64.551 31.315 97.273 0.88091 -0.11243 
5.125 553 59.842 31.271 96.882 0.88096 -0.10633 
5.15 568 69.132 31.159 96.656 0.87956 -0.10264 
5.175 568 64.475 31.01 96.263 0.87785 -0.09634 
5.2 579 69.388 31.043 95.787 0.87915 -0.0891 
5.225 579 65.413 30.94 95.626 0.87771 -0.08647 
5.25 579 60.46 30.875 95.075 0.87745 -0.07793 
5.275 593 67.243 30.822 94.857 0.87686 -0.07451 
5.3 593 63.637 30.815 94.21 0.87753 -0.0646 
5.325 593 58.916 30.726 94.207 0.87606 -0.06445 
5.35 610 68.466 30.588 93.608 0.87437 -0.05513 
5.375 610 64.022 30.483 93.149 0.87301 -0.04802 
5.4 622 69.187 30.32 92.945 0.8704 -0.04477 
5.425 622 64.199 30.257 92.303 0.86977 -0.03497 
5.45 636 70.612 30.218 92.424 0.86903 -0.03679 
5.475 636 65.81 30.05 92.2 0.86626 -0.03328 
5.5 636 61.497 30.055 91.513 0.86667 -0.02289 
5.525 655 70.528 29.951 91.138 0.86499 -0.01719 
5.55 655 65.176 29.823 91.193 0.86273 -0.01797 
5.575 655 59.895 29.658 90.769 0.85991 -0.01155 
5.6 671 66.558 29.695 89.892 0.86065 0.00162 
5.625 671 61.15 29.457 90.33 0.85637 -0.00493 
5.65 687 66.545 29.451 89.507 0.85626 0.00737 
5.675 687 60.764 29.399 89.566 0.85532 0.00647 
5.7 703 66.116 29.315 89.654 0.85381 0.00516 
5.725 717 69.824 29.099 89.199 0.84979 0.01188 
5.75 717 63.291 29.072 88.537 0.84909 0.02169 
5.775 734 68 28.957 88.803 0.84707 0.0177 
5.8 734 61.366 29.029 88.138 0.84813 0.02757 
5.825 752 65.777 28.734 88.162 0.84266 0.02705 
5.85 752 59.226 28.71 87.525 0.84185 0.03639 
5.875 780 68.572 28.662 87.989 0.84122 0.02954 
5.9 780 61.765 28.377 86.943 0.83513 0.0446 
5.925 780 54.128 28.418 86.65 0.83568 0.04892 
5.95 780 48.467 28.051 86.736 0.82868 0.04726 
5.975 780 42.541 28.1 86.764 0.82965 0.0469 
6 780 38.365 28.031 86.483 0.82807 0.05089 
6.025 780 34.099 27.895 85.665 0.82462 0.06251 
6.05 780 30.663 27.676 86.208 0.82085 0.05441 
6.075 780 27.516 27.763 86.825 0.82312 0.04566 
6.1 780 24.726 27.759 86.314 0.8226 0.05299 
6.125 780 21.972 27.713 85.478 0.82083 0.06491 
6.15 780 20.067 27.446 85.28 0.81529 0.06731 
6.175 780 18.115 27.309 85.76 0.81307 0.06028 
6.2 780 16.448 27.379 86.274 0.815 0.05307 
6.225 780 14.93 27.181 85.929 0.81067 0.0577 
6.25 780 13.578 26.978 85.696 0.80629 0.06068 
6.275 780 12.43 27.526 87.659 0.81898 0.03348 
6.3 780 11.301 27.349 86.915 0.81493 0.04392 
6.325 780 10.2 27.097 84.831 0.8077 0.043735 
6.35 780 9.165 27.444 87.143 0.81702 0.04077 
6.375 780 8.174 27.043 86.966 0.80876 0.04287 
6.4 780 7.341 26.746 85.963 0.80178 0.05658 
6.425 780 6.533 27.538 85.226 0.81708 0.06824 
6.45 780 5.842 27.295 87.548 0.81428 0.03487 
6.475 780 5.007 27.413 88.684 0.81718 0.01877 
6.5 780 4.559 28.234 91.544 0.83327 -0.02246 

# MINIMA:
0.600 374.0 0.000 0.000 0.000 0.00000 -0.91606

# MAXIMA:
6.500 3898.9 79.981 39.257 159.192 0.88406 0.07307

# PEAKS:

# END SPECTRUM


# SPECTRUM:
4

# START TIME:
12:08:45

# END TIME:
12:19:25

# THETA ANGLE:
0.00 ø

# INCIDENCE ANGLE:
70.00 ø

# ACCUMULATION NUMBER:
1

# ELLIPSOMETRIC CONFIGURATION:
0.00 ø :Modulator
+45.00 øAnalyser

# INTEGRATION TIME:
500 ms

# FIRST POINT:
0.6000 eV

# LAST POINT:
6.5000 eV

# INCREMENT:
0.0250 eV

# NUMBER OF POINTS:
237

# DATA:
eV Hv S0 Psi Delta Is Ic
0.6 3702.1 61.168 37.544 152.393 0.44779 -0.8563 
0.625 3105.2 78.871 37.275 151.602 0.4584 -0.84788 
0.65 2603.5 77.604 37.082 151.009 0.46627 -0.8415 
0.675 2501.9 78.743 36.892 150.148 0.47796 -0.8328 
0.7 1905 78.75 36.726 149.36 0.48853 -0.82476 
0.725 1606.6 77.283 36.589 148.562 0.49926 -0.81669 
0.75 1505 73.81 36.45 147.852 0.50859 -0.80925 
0.775 1308.1 69.777 36.268 147.023 0.51922 -0.80022 
0.8 908.1 74.39 36.133 146.212 0.5297 -0.79161 
0.825 1206.5 72.412 35.917 145.57 0.53722 -0.78371 
0.85 1206.5 70.408 35.84 144.82 0.54695 -0.77592 
0.875 806.5 65.879 35.704 144.13 0.55537 -0.76806 
0.9 908.1 62.961 35.525 143.299 0.56525 -0.75831 
0.925 1104.9 76.103 35.434 142.609 0.57371 -0.75063 
0.95 1104.9 69.955 35.347 141.956 0.58161 -0.74325 
0.975 806.5 74.745 35.226 141.162 0.59098 -0.73403 
1 1104.9 76.277 35.05 140.495 0.59816 -0.7255 
1.025 1003.3 65.176 34.965 139.86 0.60551 -0.71805 
1.05 628.7 61.94 34.798 138.935 0.6157 -0.70666 
1.075 1028.7 74.123 34.661 138.261 0.62284 -0.69812 
1.1 927.1 67.234 34.547 137.477 0.6314 -0.68848 
1.125 927.1 70.654 34.43 136.843 0.63796 -0.68039 
1.15 825.5 68.347 34.328 136.173 0.64499 -0.67196 
1.175 825.5 74.381 34.237 135.485 0.65219 -0.66333 
1.2 927.1 76.167 34.07 134.755 0.65907 -0.65345 
1.225 628.7 68.173 33.873 134.047 0.66523 -0.64347 
1.25 431.8 70.397 33.701 133.276 0.67216 -0.63289 
1.275 730.3 73.958 33.556 132.691 0.67715 -0.62466 
1.3 647.7 60.55 33.52 132.008 0.68418 -0.61622 
1.325 844.6 70.282 33.383 131.45 0.68875 -0.60829 
1.35 546.1 75.594 33.259 130.866 0.69362 -0.60011 
1.375 946.2 80.485 33.037 130.099 0.6992 -0.58876 
1.4 647.7 69.047 33 129.535 0.70456 -0.58151 
1.425 1447.8 69.888 32.878 129.032 0.70829 -0.57421 
1.45 2546.4 63.493 32.878 128.351 0.71506 -0.56575 
1.475 780 0 0 0 0.719672 -0.554518 
1.5 494 67.224 32.347 126.915 0.7228 -0.54299 
1.525 580 63.301 32.1 126.351 0.72512 -0.53364 
1.55 537 73.033 32.069 125.803 0.72981 -0.52642 
1.575 574 66.831 31.935 125.228 0.73338 -0.51788 
1.6 574 76.474 31.833 124.63 0.73745 -0.5093 
1.625 526 72.352 31.668 124.147 0.73959 -0.50163 
1.65 526 67.104 31.52 123.619 0.74225 -0.49349 
1.675 516 70.281 31.448 123.003 0.74654 -0.48487 
1.7 504 68.3 31.364 122.424 0.75028 -0.47658 
1.725 495 70.196 31.163 121.846 0.7523 -0.46728 
1.75 486 70.009 31.095 121.309 0.7557 -0.45964 
1.775 476 70.134 30.949 120.792 0.75776 -0.45157 
1.8 460 69.847 30.854 120.241 0.76071 -0.44348 
1.825 460 76.105 30.764 119.716 0.76345 -0.43575 
1.85 447 68.485 30.634 119.172 0.76566 -0.42742 
1.875 447 74.939 30.532 118.703 0.76763 -0.42031 
1.9 433 68.301 30.372 118.186 0.76898 -0.41209 
1.925 433 74.94 30.301 117.725 0.7712 -0.40533 
1.95 423 70.178 30.132 117.201 0.77229 -0.39692 
1.975 423 77.004 30.082 116.751 0.77461 -0.39046 
2 413 69.934 30.016 116.233 0.77708 -0.38293 
2.025 413 72.649 29.895 115.782 0.77817 -0.37587 
2.05 413 71.949 29.834 115.278 0.78048 -0.36855 
2.075 401 70.048 29.629 114.747 0.78054 -0.35978 
2.1 401 74.087 29.622 114.291 0.78328 -0.35351 
2.125 401 77.403 29.505 113.782 0.78447 -0.3457 
2.15 393 69.508 29.408 113.237 0.78611 -0.33754 
2.175 393 72.203 29.295 112.737 0.78714 -0.32986 
2.2 393 74.365 29.239 112.247 0.78898 -0.32273 
2.225 393 77.364 29.166 111.684 0.79088 -0.31448 
2.25 393 79.355 29.071 111.159 0.79209 -0.30658 
2.275 385 70.365 28.977 110.555 0.79366 -0.2976 
2.3 385 71.035 28.787 109.987 0.79324 -0.28851 
2.325 385 72.437 28.669 109.414 0.79401 -0.27984 
2.35 385 73.788 28.477 108.842 0.79331 -0.27071 
2.375 385 75.037 28.345 108.26 0.79362 -0.26185 
2.4 385 76.522 28.096 107.669 0.79171 -0.2522 
2.425 377 68.578 27.826 107.105 0.7891 -0.24284 
2.45 377 78.209 27.621 106.731 0.7868 -0.23651 
2.475 377 78.612 27.274 106.46 0.78122 -0.23082 
2.5 377 63.66 26.738 106.102 0.77208 -0.22287 
2.525 377 64.383 26.496 106.149 0.76704 -0.2221 
2.55 377 63.012 26.268 106.141 0.76245 -0.22066 
2.575 377 67.1 26.139 106.322 0.75911 -0.2223 
2.6 377 62.399 26.002 106.465 0.75574 -0.22336 
2.625 377 74.126 25.966 106.666 0.75422 -0.22579 
2.65 377 77.617 25.932 106.631 0.75364 -0.22511 
2.675 377 67.398 25.887 106.628 0.75273 -0.2248 
2.7 377 61.604 25.872 106.493 0.75295 -0.22293 
2.725 385 67.42 25.84 106.476 0.75235 -0.22251 
2.75 385 70.632 25.843 106.467 0.75244 -0.22241 
2.775 385 61.679 25.806 106.25 0.75252 -0.21934 
2.8 385 60.95 25.808 106.081 0.75319 -0.21712 
2.825 385 60.225 25.762 105.887 0.75297 -0.2143 
2.85 395 68.893 25.779 105.767 0.75376 -0.21282 
2.875 395 67.149 25.761 105.517 0.75432 -0.20943 
2.9 395 65.891 25.752 105.277 0.755 -0.20622 
2.925 395 64.746 25.714 105.106 0.75481 -0.20375 
2.95 395 64.406 25.671 104.908 0.7546 -0.20089 
2.975 395 61.182 25.646 104.598 0.75514 -0.19667 
3 403 68.569 25.604 104.386 0.75498 -0.19365 
3.025 403 65.8 25.575 104.106 0.75531 -0.1898 
3.05 403 63.091 25.502 103.809 0.75471 -0.18551 
3.075 403 60.389 25.472 103.604 0.75474 -0.18265 
3.1 403 76.779 25.418 103.424 0.75415 -0.18 
3.125 403 74.318 25.369 103.214 0.75375 -0.17699 
3.15 403 69.957 25.276 102.906 0.7527 -0.17247 
3.175 403 65.472 25.203 102.603 0.752 -0.16813 
3.2 403 62.399 25.096 102.441 0.75015 -0.16549 
3.225 412 69.876 25.014 102.271 0.74885 -0.16288 
3.25 412 66.726 24.898 102.061 0.7469 -0.15959 
3.275 412 62.802 24.711 101.92 0.74315 -0.15688 
3.3 421 67.659 24.578 101.85 0.74037 -0.15534 
3.325 421 60.711 24.373 101.891 0.73565 -0.15491 
3.35 431 67.509 24.236 102.103 0.732 -0.15697 
3.375 431 67.037 24.11 102.378 0.72837 -0.15985 
3.4 431 66.628 24.044 102.735 0.72585 -0.16404 
3.425 431 64.946 23.987 103.048 0.72366 -0.16771 
3.45 431 62.797 23.954 103.415 0.72183 -0.17216 
3.475 431 60.031 23.988 103.694 0.72176 -0.17586 
3.5 442 68.806 24.034 104.105 0.7215 -0.1813 
3.525 442 65.425 24.043 104.291 0.72111 -0.18369 
3.55 442 62.918 24.041 104.581 0.72013 -0.18732 
3.575 442 60.203 24.105 104.881 0.7206 -0.19148 
3.6 452 68.785 24.161 105.141 0.72098 -0.19508 
3.625 452 66.412 24.26 105.541 0.7218 -0.20073 
3.65 452 64.711 24.314 105.823 0.72201 -0.20462 
3.675 452 63.101 24.445 106.127 0.72379 -0.20929 
3.7 452 61.798 24.577 106.394 0.72572 -0.21351 
3.725 452 60.71 24.729 106.683 0.72793 -0.21815 
3.75 462 69.761 24.927 107.041 0.73085 -0.22402 
3.775 462 67.534 25.101 107.333 0.73342 -0.2289 
3.8 462 64.401 25.311 107.495 0.73723 -0.23238 
3.825 462 60.746 25.51 107.669 0.74069 -0.23594 
3.85 473 67.696 25.768 107.918 0.74503 -0.2409 
3.875 473 62.115 25.961 107.935 0.74891 -0.2424 
3.9 484 67.728 26.304 108.136 0.75503 -0.2473 
3.925 484 62.721 26.522 108.193 0.75915 -0.24949 
3.95 495 69.118 26.857 108.243 0.76555 -0.25234 
3.975 495 64.926 27.115 108.23 0.77065 -0.25383 
4 495 61.094 27.447 108.172 0.77729 -0.25513 
4.025 506 68.486 27.77 108.095 0.78374 -0.25609 
4.05 506 64.777 28.087 107.932 0.79038 -0.25577 
4.075 506 61.246 28.439 107.74 0.79769 -0.25519 
4.1 517 68.143 28.845 107.541 0.80586 -0.25472 
4.125 517 64.922 29.178 107.378 0.81246 -0.25427 
4.15 517 62.588 29.61 107.029 0.82147 -0.25159 
4.175 517 60.649 29.995 106.691 0.82946 -0.24871 
4.2 517 59.356 30.398 106.143 0.83847 -0.2427 
4.225 517 58.614 30.893 105.631 0.84859 -0.23743 
4.25 529 68.695 31.482 104.817 0.86111 -0.22779 
4.275 529 67.283 32.001 103.98 0.87218 -0.21713 
4.3 529 69.561 32.298 102.265 0.88269 -0.1919 
4.325 529 76.979 32.576 101.384 0.88957 -0.17912 
4.35 518 71.531 33.004 99.817 0.90023 -0.15577 
4.375 518 76.671 33.257 98.481 0.90713 -0.13526 
4.4 508 70.502 33.127 97.479 0.90756 -0.11914 
4.425 508 75.23 33.257 96.095 0.91197 -0.09739 
4.45 499 69.26 33.169 95.114 0.91228 -0.08164 
4.475 499 71.784 33.234 93.787 0.91484 -0.06056 
4.5 499 74.656 33.13 92.742 0.91433 -0.04378 
4.525 499 76.705 33.077 91.741 0.91421 -0.02779 
4.55 499 78.684 32.963 90.898 0.91291 -0.0143 
4.575 490 68.754 32.86 90.089 0.91155 -0.00141 
4.6 490 68.859 32.659 89.45 0.90859 0.00872 
4.625 490 68.074 32.58 88.727 0.90726 0.02017 
4.65 490 66.841 32.477 88.249 0.90555 0.02768 
4.675 490 66.545 32.334 87.806 0.90317 0.0346 
4.7 490 64.758 32.333 87.211 0.90275 0.04397 
4.725 490 63.74 32.186 86.77 0.90019 0.05081 
4.75 490 61.772 32.037 86.205 0.89739 0.05953 
4.775 490 59.708 32.039 85.611 0.89675 0.06883 
4.8 503 70.223 31.986 85.284 0.89554 0.07388 
4.825 503 67.599 31.928 84.773 0.89395 0.08178 
4.85 503 64.663 31.888 84.191 0.89247 0.09079 
4.875 503 61.975 31.848 83.843 0.89128 0.09615 
4.9 513 68.948 31.9 83.245 0.89102 0.10554 
4.925 513 66.228 31.76 82.85 0.88812 0.11141 
4.95 513 63.389 31.738 82.294 0.88667 0.11998 
4.975 524 70.436 31.666 82.046 0.88502 0.12365 
5 524 67.644 31.651 81.52 0.88361 0.13174 
5.025 524 64.44 31.62 81.14 0.88224 0.13752 
5.05 524 61.175 31.59 80.638 0.88054 0.14517 
5.075 537 68.998 31.504 80.279 0.87827 0.15045 
5.1 537 65.228 31.414 80.055 0.87627 0.15364 
5.125 537 60.88 31.462 79.309 0.87495 0.16517 
5.15 551 69.118 31.377 78.99 0.87269 0.1698 
5.175 551 64.748 31.259 78.849 0.87041 0.17157 
5.2 551 59.995 31.229 78.46 0.86875 0.17738 
5.225 567 69.418 31.208 78.031 0.86706 0.18381 
5.25 567 64.393 31.065 77.834 0.86415 0.1863 
5.275 567 60.615 31.182 77.164 0.86377 0.19681 
5.3 581 67.473 31.083 76.824 0.86103 0.20157 
5.325 581 63.465 31.033 76.508 0.85911 0.20612 
5.35 581 59.088 31.029 76.052 0.85738 0.21294 
5.375 596 67.677 30.861 75.397 0.8522 0.22204 
5.4 596 63.485 30.926 75.171 0.85236 0.22567 
5.425 610 69.806 30.891 74.935 0.85086 0.22902 
5.45 610 65.573 30.733 74.674 0.84729 0.23221 
5.475 610 60.881 30.772 74.134 0.8457 0.24036 
5.5 625 67.895 30.62 73.844 0.84202 0.24393 
5.525 625 62.382 30.768 73.307 0.84207 0.25252 
5.55 641 70.134 30.435 73.492 0.8375 0.24821 
5.575 641 64.885 30.302 72.916 0.8328 0.25595 
5.6 641 59.816 30.206 72.627 0.82992 0.25965 
5.625 656 64.966 30.322 72.17 0.82973 0.26688 
5.65 669 68.524 30.283 72.02 0.8284 0.26884 
5.675 669 62.462 30.205 71.467 0.82449 0.2764 
5.7 686 68.776 30.167 71.514 0.82409 0.27551 
5.725 686 62.332 29.947 70.938 0.81767 0.28254 
5.75 704 68.677 29.962 70.523 0.81583 0.28854 
5.775 704 61.431 29.96 69.944 0.81285 0.29675 
5.8 727 70.473 29.766 70.221 0.81106 0.29167 
5.825 727 63.152 29.686 69.505 0.80603 0.30128 
5.85 746 69.123 29.746 69.565 0.80735 0.3008 
5.875 746 61.382 29.348 69.935 0.80256 0.29314 
5.9 780 76.252 29.457 68.767 0.79826 0.31016 
5.925 780 67.696 29.34 68.892 0.79697 0.30765 
5.95 780 59.778 29.706 67.952 0.79789 0.32315 
5.975 780 53.477 29.131 68.378 0.79062 0.31338 
6 780 48.187 29.009 68.403 0.78867 0.31221 
6.025 780 42.045 28.774 67.8 0.78129 0.31884 
6.05 780 37.611 29.027 68.687 0.79051 0.30841 
6.075 780 34.059 28.856 67.641 0.78181 0.32159 
6.1 780 30.523 28.753 68.123 0.78271 0.31428 
6.125 780 27.472 28.58 68.917 0.78394 0.30223 
6.15 780 24.596 28.31 67.716 0.77268 0.31665 
6.175 780 22.18 28.086 67.616 0.76811 0.31635 
6.2 780 20.143 28.26 67.491 0.77054 0.31932 
6.225 780 18.267 28.348 67.343 0.77128 0.32195 
6.25 780 16.455 27.989 67.634 0.76648 0.31539 
6.275 780 15.061 27.991 67.82 0.76753 0.3129 
6.3 780 13.685 28.264 68.334 0.77523 0.30796 
6.325 780 12.413 27.649 67.649 0.76036 0.31263 
6.35 780 11.053 27.828 66.703 0.75834 0.32655 
6.375 780 9.793 27.154 68.856 0.7575 0.29296 
6.4 780 8.825 27.712 68.669 0.76697 0.2995 
6.425 780 7.821 27.003 69.049 0.75558 0.28929 
6.45 780 6.884 27.77 67.708 0.76291 0.31277 
6.475 780 6.088 27.599 70.619 0.7746 0.2725 
6.5 780 5.331 27.392 71.334 0.774 0.26148 

# MINIMA:
0.600 377.0 0.000 0.000 0.000 0.00000 -0.85630

# MAXIMA:
6.500 3702.1 80.485 37.544 152.393 0.91484 0.32655

# PEAKS:

# END SPECTRUM


# SPECTRUM:
5

# START TIME:
12:20:13

# END TIME:
12:30:47

# THETA ANGLE:
0.00 ø

# INCIDENCE ANGLE:
75.00 ø

# ACCUMULATION NUMBER:
1

# ELLIPSOMETRIC CONFIGURATION:
0.00 ø :Modulator
+45.00 øAnalyser

# INTEGRATION TIME:
500 ms

# FIRST POINT:
0.6000 eV

# LAST POINT:
6.5000 eV

# INCREMENT:
0.0250 eV

# NUMBER OF POINTS:
237

# DATA:
eV Hv S0 Psi Delta Is Ic
0.6 2902 62.651 35.247 141.728 0.58384 -0.74002 
0.625 2400.3 79.321 34.855 140.53 0.59622 -0.72406 
0.65 2000.3 79.07 34.617 139.866 0.60271 -0.71487 
0.675 1898.7 78.114 34.385 138.474 0.61797 -0.69784 
0.7 1498.6 75.221 34.267 137.394 0.62999 -0.68497 
0.725 1397 80.192 34.124 136.478 0.6396 -0.67348 
0.75 1295.4 72.676 33.927 135.453 0.64974 -0.66009 
0.775 1193.8 76.501 33.732 134.23 0.66183 -0.64428 
0.8 793.8 76.311 33.634 133.33 0.67091 -0.6329 
0.825 1092.2 77.09 33.484 132.298 0.6807 -0.61934 
0.85 1092.2 74.56 33.36 131.402 0.68902 -0.6075 
0.875 692.2 61.082 33.233 130.451 0.69768 -0.59483 
0.9 889 77.912 33.092 129.375 0.70719 -0.58038 
0.925 990.6 72.788 32.946 128.457 0.71477 -0.56768 
0.95 990.6 65.471 32.846 127.284 0.7251 -0.55206 
0.975 692.2 64.304 32.774 126.489 0.73186 -0.54134 
1 990.6 68.299 32.597 125.634 0.73777 -0.52885 
1.025 990.6 74.032 32.498 124.642 0.74561 -0.51516 
1.05 596.9 64.797 32.377 123.677 0.75269 -0.50154 
1.075 997 78.618 32.245 122.735 0.75917 -0.48804 
1.1 895.4 71.031 32.168 121.494 0.76857 -0.47087 
1.125 895.4 74.83 32.13 120.994 0.77216 -0.46385 
1.15 793.8 72.013 31.95 119.902 0.77848 -0.44768 
1.175 793.8 78.44 31.791 119.063 0.7828 -0.43504 
1.2 793.8 61.666 31.817 118.078 0.79053 -0.42171 
1.225 596.9 68.486 31.61 117.322 0.79316 -0.40976 
1.25 400.1 65.816 31.547 116.423 0.7986 -0.39683 
1.275 698.5 76.306 31.415 115.407 0.80361 -0.38171 
1.3 603.3 61.117 31.345 114.616 0.80779 -0.37011 
1.325 800.1 68.719 31.198 113.696 0.81145 -0.35614 
1.35 501.7 73.939 31.037 112.896 0.81394 -0.34375 
1.375 901.7 78.258 30.996 112.166 0.81764 -0.33311 
1.4 603.3 67.461 30.93 111.498 0.82045 -0.32315 
1.425 1403.4 67.307 30.844 110.757 0.82323 -0.312 
1.45 2501.9 62.536 30.814 110.033 0.82664 -0.3014 
1.475 780 0 0 0 0.828968 -0.285705 
1.5 477 67.53 30.417 108.033 0.83032 -0.27031 
1.525 563 64.673 30.271 107.416 0.8308 -0.26061 
1.55 519 72.194 30.2 106.561 0.83343 -0.24783 
1.575 555 65.969 30.079 105.934 0.83408 -0.23812 
1.6 555 76.135 29.992 105.371 0.83491 -0.22952 
1.625 509 71.948 29.903 104.581 0.8365 -0.2176 
1.65 509 65.934 29.811 103.8 0.83781 -0.20579 
1.675 500 69.721 29.765 103.133 0.83936 -0.19583 
1.7 490 69.146 29.707 102.426 0.8407 -0.18524 
1.725 479 68.916 29.555 101.68 0.84038 -0.17373 
1.75 479 78.486 29.547 101.186 0.84171 -0.16644 
1.775 463 71.076 29.416 100.46 0.84144 -0.15534 
1.8 448 71.351 29.357 99.814 0.84207 -0.14567 
1.825 448 77.107 29.31 99.135 0.84291 -0.13555 
1.85 436 70.124 29.222 98.464 0.84285 -0.12542 
1.875 436 75.926 29.149 97.916 0.84269 -0.11718 
1.9 423 69.895 29.041 97.275 0.84197 -0.10749 
1.925 423 76.32 28.997 96.658 0.84228 -0.09831 
1.95 413 70.051 28.896 96.103 0.84133 -0.08996 
1.975 413 77.458 28.852 95.475 0.84145 -0.08065 
2 403 69.64 28.811 94.82 0.84154 -0.07096 
2.025 403 72.297 28.744 94.301 0.8409 -0.06325 
2.05 403 70.94 28.729 93.731 0.84121 -0.05485 
2.075 392 69.566 28.624 93.122 0.83977 -0.0458 
2.1 392 73.927 28.591 92.552 0.83956 -0.03741 
2.125 392 76.677 28.527 91.968 0.83868 -0.02882 
2.15 392 79.768 28.498 91.354 0.8384 -0.01982 
2.175 384 70.484 28.428 90.753 0.83723 -0.01101 
2.2 384 72.715 28.405 90.173 0.83686 -0.00252 
2.225 384 75.116 28.383 89.529 0.83641 0.00687 
2.25 384 77.157 28.33 88.866 0.83525 0.01654 
2.275 384 78.806 28.313 88.283 0.83472 0.02503 
2.3 377 69.692 28.226 87.574 0.83268 0.03528 
2.325 377 70.974 28.133 86.838 0.83037 0.04587 
2.35 377 72.17 27.976 86.094 0.82664 0.05644 
2.375 377 73.131 27.904 85.41 0.82451 0.06619 
2.4 377 74.052 27.688 84.676 0.81935 0.07635 
2.425 377 77.478 27.502 83.987 0.81468 0.08582 
2.45 366 71.499 27.266 83.389 0.80902 0.09376 
2.475 366 70.946 27.007 82.942 0.80302 0.09943 
2.5 366 71.771 26.54 82.315 0.7923 0.10691 
2.525 366 71.553 26.276 82.173 0.78651 0.10812 
2.55 366 70.358 26.039 82.142 0.78145 0.10785 
2.575 366 73.807 25.896 82.145 0.77841 0.1074 
2.6 366 69.156 25.752 82.208 0.77543 0.10611 
2.625 358 69.893 25.708 82.188 0.77445 0.10625 
2.65 358 71.914 25.652 82.217 0.77329 0.1057 
2.675 358 62.53 25.602 82.264 0.77229 0.10491 
2.7 367 68.505 25.583 82.176 0.77172 0.10604 
2.725 367 63.849 25.585 82.036 0.7715 0.10793 
2.75 367 66.567 25.589 81.909 0.77134 0.10965 
2.775 375 67.608 25.594 81.771 0.77118 0.11152 
2.8 375 66.346 25.576 81.648 0.77056 0.11313 
2.825 375 65.279 25.608 81.413 0.77077 0.11639 
2.85 375 61.496 25.607 81.251 0.77042 0.11856 
2.875 375 59.849 25.61 81.041 0.77004 0.12139 
2.9 383 68.144 25.642 80.672 0.76994 0.12647 
2.925 383 66.45 25.661 80.406 0.76975 0.13011 
2.95 383 65.963 25.643 80.19 0.76887 0.13295 
2.975 383 62.163 25.61 80.023 0.76776 0.13505 
3 391 70.03 25.623 79.632 0.7671 0.14035 
3.025 391 66.999 25.63 79.274 0.76637 0.14517 
3.05 391 64.02 25.6 79.057 0.76517 0.14794 
3.075 391 61.328 25.581 78.808 0.76411 0.15119 
3.1 391 77.609 25.619 78.423 0.76389 0.15649 
3.125 391 75.315 25.556 78.217 0.76198 0.15895 
3.15 391 71.009 25.515 77.902 0.76021 0.16294 
3.175 391 66.759 25.444 77.605 0.75782 0.16654 
3.2 391 63.04 25.382 77.297 0.75558 0.17031 
3.225 391 60.043 25.251 77.093 0.75216 0.17237 
3.25 401 68.62 25.195 76.749 0.74989 0.17659 
3.275 401 64.483 25.068 76.434 0.74615 0.18004 
3.3 401 58.966 24.919 76.337 0.7426 0.18052 
3.325 414 66.877 24.799 76.064 0.73909 0.1834 
3.35 414 62.936 24.643 76.066 0.73568 0.18252 
3.375 414 62.168 24.486 76.218 0.73268 0.17971 
3.4 414 61.339 24.366 76.404 0.73056 0.17668 
3.425 414 59.312 24.262 76.73 0.72922 0.17198 
3.45 424 68.201 24.203 76.872 0.72831 0.16986 
3.475 424 64.785 24.207 77.081 0.72902 0.16723 
3.5 424 61.694 24.126 77.393 0.72809 0.16284 
3.525 434 69.093 24.159 77.579 0.72938 0.16065 
3.55 434 65.873 24.118 77.871 0.72924 0.15673 
3.575 434 62.919 24.094 78.12 0.72936 0.15344 
3.6 443 70.108 24.138 78.277 0.73078 0.15165 
3.625 443 67.398 24.105 78.656 0.73102 0.14665 
3.65 443 65.123 24.156 78.997 0.73306 0.14254 
3.675 443 63.34 24.187 79.327 0.73457 0.13844 
3.7 443 61.518 24.257 79.716 0.73709 0.13374 
3.725 452 69.742 24.343 80.025 0.73975 0.1301 
3.75 452 66.975 24.449 80.429 0.74306 0.12529 
3.775 452 64.462 24.558 80.819 0.74635 0.12063 
3.8 452 61.153 24.683 81.192 0.74994 0.1162 
3.825 462 67.085 24.814 81.527 0.75353 0.11226 
3.85 462 62.466 24.959 81.889 0.75748 0.10795 
3.875 475 69.442 25.179 82.198 0.76293 0.10453 
3.9 475 64.021 25.36 82.539 0.7675 0.10052 
3.925 485 68.451 25.628 82.8 0.7738 0.09775 
3.95 485 63.672 25.79 83.097 0.77779 0.09416 
3.975 485 59.629 26.081 83.292 0.78433 0.09225 
4 498 67.88 26.293 83.563 0.78925 0.08904 
4.025 498 64.245 26.611 83.731 0.79618 0.08747 
4.05 498 60.721 26.856 83.929 0.80154 0.08524 
4.075 509 68.06 27.205 83.956 0.80868 0.08563 
4.1 509 63.806 27.53 84.127 0.81544 0.08388 
4.125 509 60.193 27.865 84.18 0.82213 0.0838 
4.15 520 67.541 28.289 84.31 0.83051 0.08276 
4.175 520 65.504 28.728 84.419 0.83898 0.08199 
4.2 520 64.23 29.18 84.194 0.84699 0.08612 
4.225 520 63.028 29.655 84.138 0.85544 0.08782 
4.25 520 61.776 30.232 83.841 0.86502 0.09334 
4.275 520 59.669 30.82 83.426 0.87419 0.10074 
4.3 520 76.267 31.257 82.208 0.87893 0.12027 
4.325 509 70.881 31.563 81.656 0.88256 0.12945 
4.35 509 76.13 32.175 80.491 0.88907 0.14892 
4.375 498 69.511 32.529 79.359 0.89114 0.16743 
4.4 498 73.74 32.81 78.107 0.89127 0.18771 
4.425 498 77.747 32.975 76.987 0.88974 0.20562 
4.45 487 68.842 33.104 75.974 0.88774 0.22177 
4.475 487 71.323 33.274 74.718 0.88496 0.24179 
4.5 487 73.487 33.258 73.762 0.88058 0.25647 
4.525 487 75.554 33.32 72.678 0.87639 0.27334 
4.55 487 77.171 33.343 71.768 0.87224 0.28733 
4.575 487 77.713 33.288 70.902 0.86708 0.30022 
4.6 487 78.027 33.227 70.045 0.8617 0.31286 
4.625 487 77.232 33.109 69.404 0.8566 0.3219 
4.65 487 76.381 33.102 68.756 0.85281 0.33154 
4.675 487 75.156 33.022 68.285 0.84901 0.33812 
4.7 487 73.002 32.902 67.787 0.84445 0.34484 
4.725 487 72.15 32.872 67.233 0.84068 0.35282 
4.75 487 68.917 32.903 66.626 0.8373 0.36189 
4.775 487 66.331 32.836 66.2 0.83371 0.36771 
4.8 487 64.269 32.776 65.884 0.83089 0.37195 
4.825 487 61.579 32.805 65.221 0.8269 0.38171 
4.85 499 71.696 32.792 64.691 0.82317 0.38927 
4.875 499 67.807 32.813 64.367 0.82122 0.39405 
4.9 499 65.572 32.836 63.9 0.81829 0.40087 
4.925 499 62.376 32.871 63.387 0.81511 0.40841 
4.95 499 60.117 32.734 63.071 0.81108 0.412 
4.975 512 71.048 32.807 62.602 0.80863 0.41911 
5 512 67.394 32.832 62.303 0.80675 0.42349 
5.025 512 63.439 32.65 61.942 0.80174 0.42732 
5.05 512 60.434 32.617 61.596 0.79871 0.43194 
5.075 526 70.474 32.703 61.067 0.7958 0.4399 
5.1 526 65.839 32.7 60.78 0.79354 0.44385 
5.125 526 61.667 32.664 60.341 0.78966 0.44966 
5.15 539 69.323 32.481 60.168 0.78597 0.45072 
5.175 539 64.729 32.453 59.828 0.78292 0.45517 
5.2 550 70.463 32.709 59.163 0.78081 0.46614 
5.225 550 65.463 32.554 59.123 0.77853 0.46552 
5.25 550 61.08 32.656 58.609 0.7756 0.47326 
5.275 563 68.122 32.605 58.283 0.77227 0.47729 
5.3 563 63.054 32.508 58.172 0.77014 0.47802 
5.325 574 68.51 32.631 57.611 0.76694 0.48651 
5.35 574 64.019 32.551 57.363 0.76383 0.4892 
5.375 574 59.724 32.269 57.056 0.7577 0.491 
5.4 587 66.854 32.316 56.646 0.75474 0.49679 
5.425 587 62.42 32.372 56.386 0.75318 0.50068 
5.45 602 69.147 32.496 55.85 0.74998 0.50873 
5.475 602 64.835 32.16 55.917 0.74643 0.50504 
5.5 602 59.87 32.081 55.524 0.74195 0.50946 
5.525 619 68.792 32.061 55.246 0.73923 0.51289 
5.55 619 63.209 32.433 54.49 0.73694 0.52585 
5.575 632 68.312 32.272 54.384 0.73401 0.52581 
5.6 632 63.057 32.048 54.306 0.73054 0.52483 
5.625 647 68.447 32.187 53.836 0.72792 0.53205 
5.65 647 62.452 32.067 53.474 0.72308 0.53556 
5.675 663 68.894 32.362 52.952 0.72172 0.54481 
5.7 663 62.473 31.968 53.024 0.71765 0.54031 
5.725 679 68.146 32.113 52.578 0.71517 0.54723 
5.75 679 61.983 32.016 52.307 0.71141 0.5497 
5.775 695 66.204 31.889 52.368 0.71045 0.54775 
5.8 695 59.55 31.669 51.845 0.70273 0.5521 
5.825 718 68.426 31.603 51.524 0.69881 0.55539 
5.85 718 61.555 31.529 51.694 0.69954 0.55258 
5.875 735 65.308 31.253 51.522 0.69443 0.55194 
5.9 735 58.005 31.528 50.781 0.69064 0.56366 
5.925 759 65.663 31.423 50.973 0.69123 0.56029 
5.95 780 71.842 31.072 50.768 0.68484 0.55917 
5.975 780 63.188 31.197 50.93 0.68799 0.55851 
6 780 56.261 31.046 50.02 0.67716 0.56779 
6.025 780 50.013 30.707 50.542 0.67797 0.55804 
6.05 780 44.854 30.829 49.777 0.67201 0.56836 
6.075 780 40.354 30.557 49.976 0.6705 0.5631 
6.1 780 36.662 30.875 49.565 0.67049 0.57133 
6.125 780 32.305 30.426 49.606 0.66516 0.56598 
6.15 780 29.516 30.522 49.92 0.6695 0.56337 
6.175 780 26.584 30.165 49.692 0.66259 0.56208 
6.2 780 24.138 29.805 49.865 0.65948 0.55602 
6.225 780 21.848 30.084 48.86 0.6533 0.57072 
6.25 780 19.809 29.398 50.16 0.65675 0.54796 
6.275 780 18.027 29.348 49.469 0.64941 0.55526 
6.3 780 15.967 29.414 49.784 0.65335 0.55245 
6.325 780 14.57 29.565 49.38 0.65152 0.55881 
6.35 780 12.942 29.293 50.249 0.65613 0.54572 
6.375 780 11.396 28.991 50.521 0.65445 0.53908 
6.4 780 10.188 28.614 50.619 0.64991 0.53348 
6.425 780 9.267 28.216 50.802 0.64572 0.5266 
6.45 780 8.046 28.044 51.093 0.64579 0.52121 
6.475 780 7.163 28.191 52.205 0.65805 0.51034 
6.5 780 6.217 27.595 53.063 0.65627 0.4934 

# MINIMA:
0.600 358.0 0.000 0.000 0.000 0.00000 -0.74002

# MAXIMA:
6.500 2902.0 80.192 35.247 141.728 0.89127 0.57133

# PEAKS:

# END SPECTRUM

