## SPECTRUM TYPE:
Spectroscopic

## DATE:
1/30/2012

## COMMENTS:

## NUMBER OF SPECTRUM:
5

## ELLIPSOMETRIC CONFIGURATION:
+90.00 øModulator
-45.00 øAnalyser

## UNIT:
eV


# SPECTRUM:
1

# START TIME:
14:22:20

# END TIME:
14:34:21

# THETA ANGLE:
0.00 ø

# INCIDENCE ANGLE:
55.00 ø

# ACCUMULATION NUMBER:
1

# ELLIPSOMETRIC CONFIGURATION:
+90.00 øModulator
-45.00 øAnalyser

# INTEGRATION TIME:
500 ms

# FIRST POINT:
0.6000 eV

# LAST POINT:
6.5000 eV

# INCREMENT:
0.0250 eV

# NUMBER OF POINTS:
237

# DATA:
eV Hv S0 Psi Delta Is Ic 
0.600 3898.9 46.587 41.710 167.496 -0.21508 -0.96985 
0.625 3898.9 72.158 41.487 167.033 -0.22270 -0.96718 
0.650 3498.9 77.945 41.407 166.768 -0.22710 -0.96580 
0.675 3200.4 78.561 41.349 166.405 -0.23315 -0.96410 
0.700 2400.3 79.324 41.205 165.922 -0.24111 -0.96147 
0.725 1898.7 79.179 41.038 165.565 -0.24691 -0.95918 
0.750 1701.8 77.494 40.929 165.264 -0.25180 -0.95736 
0.775 1403.4 73.212 40.880 164.908 -0.25769 -0.95554 
0.800 901.7 67.751 40.819 164.589 -0.26292 -0.95380 
0.825 1200.2 69.208 40.573 164.257 -0.26808 -0.95102 
0.850 1200.2 68.968 40.542 163.896 -0.27402 -0.94915 
0.875 800.1 63.921 40.476 163.547 -0.27971 -0.94712 
0.900 997.0 77.253 40.259 163.188 -0.28528 -0.94418 
0.925 1098.6 74.266 40.363 162.889 -0.29037 -0.94325 
0.950 1098.6 66.611 40.281 162.556 -0.29571 -0.94109 
0.975 800.1 68.530 40.253 162.187 -0.30172 -0.93902 
1.000 1098.6 70.114 40.068 161.852 -0.30687 -0.93621 
1.025 1098.6 75.477 39.932 161.491 -0.31250 -0.93347 
1.050 698.5 70.942 39.751 161.099 -0.31850 -0.93024 
1.075 1098.6 77.040 39.895 160.857 -0.32273 -0.92975 
1.100 997.0 68.227 39.591 160.449 -0.32870 -0.92560 
1.125 997.0 71.089 39.579 160.103 -0.33426 -0.92352 
1.150 895.4 70.176 39.401 159.750 -0.33953 -0.92033 
1.175 895.4 75.788 39.209 159.400 -0.34467 -0.91700 
1.200 895.4 60.228 39.418 159.132 -0.34948 -0.91672 
1.225 698.5 72.852 39.167 158.801 -0.35414 -0.91307 
1.250 438.2 62.963 39.139 158.431 -0.35995 -0.91058 
1.275 736.6 65.328 39.136 158.220 -0.36330 -0.90923 
1.300 736.6 72.132 39.070 157.893 -0.36830 -0.90670 
1.325 933.5 80.247 38.875 157.541 -0.37333 -0.90311 
1.350 533.4 65.216 38.677 157.263 -0.37712 -0.89992 
1.375 933.5 71.037 38.530 156.988 -0.38100 -0.89704 
1.400 641.4 62.398 38.434 156.632 -0.38627 -0.89397 
1.425 1441.5 63.476 38.377 156.425 -0.38931 -0.89215 
1.450 2641.6 60.816 38.803 156.132 -0.39520 -0.89317 
1.475 664.0 72.117 38.128 155.730 -0.39927 -0.88551 
1.500 489.0 56.289 37.942 155.523 -0.40182 -0.88264 
1.525 600.0 73.990 37.959 155.280 -0.40561 -0.88107 
1.550 541.0 71.596 37.753 155.106 -0.40754 -0.87822 
1.575 580.0 65.113 37.575 154.782 -0.41184 -0.87447 
1.600 580.0 74.737 37.544 154.518 -0.41574 -0.87232 
1.625 530.0 67.816 37.426 154.277 -0.41894 -0.86960 
1.650 530.0 63.582 37.296 154.036 -0.42206 -0.86675 
1.675 530.0 76.362 37.328 153.762 -0.42635 -0.86499 
1.700 514.0 70.965 37.153 153.576 -0.42842 -0.86214 
1.725 502.0 69.596 37.031 153.306 -0.43195 -0.85908 
1.750 492.0 68.640 36.952 153.096 -0.43476 -0.85681 
1.775 483.0 70.197 36.809 152.841 -0.43794 -0.85362 
1.800 467.0 70.106 36.689 152.598 -0.44100 -0.85070 
1.825 467.0 76.711 36.644 152.374 -0.44411 -0.84857 
1.850 454.0 69.581 36.496 152.198 -0.44602 -0.84588 
1.875 454.0 76.997 36.389 151.966 -0.44892 -0.84310 
1.900 440.0 69.839 36.350 151.771 -0.45160 -0.84121 
1.925 440.0 76.564 36.227 151.536 -0.45444 -0.83822 
1.950 429.0 70.430 36.129 151.361 -0.45648 -0.83591 
1.975 429.0 78.234 36.011 151.165 -0.45874 -0.83324 
2.000 418.0 70.140 35.972 150.980 -0.46122 -0.83139 
2.025 418.0 73.193 35.809 150.775 -0.46332 -0.82818 
2.050 418.0 72.861 35.768 150.571 -0.46606 -0.82613 
2.075 406.0 71.288 35.621 150.344 -0.46851 -0.82286 
2.100 406.0 75.600 35.578 150.146 -0.47110 -0.82081 
2.125 399.0 69.971 35.501 149.919 -0.47391 -0.81818 
2.150 399.0 73.155 35.378 149.734 -0.47585 -0.81543 
2.175 399.0 76.031 35.365 149.543 -0.47850 -0.81372 
2.200 399.0 79.205 35.255 149.305 -0.48122 -0.81062 
2.225 390.0 69.510 35.131 149.086 -0.48356 -0.80753 
2.250 390.0 72.367 34.965 148.874 -0.48554 -0.80405 
2.275 390.0 74.315 34.924 148.617 -0.48887 -0.80144 
2.300 390.0 76.438 34.774 148.396 -0.49101 -0.79800 
2.325 383.0 68.960 34.618 148.186 -0.49292 -0.79458 
2.350 383.0 70.250 34.548 147.942 -0.49584 -0.79172 
2.375 383.0 72.066 34.358 147.753 -0.49718 -0.78807 
2.400 383.0 74.011 34.216 147.553 -0.49896 -0.78479 
2.425 383.0 78.060 33.953 147.449 -0.49854 -0.78102 
2.450 371.0 70.698 33.734 147.362 -0.49815 -0.77782 
2.475 371.0 70.990 33.422 147.438 -0.49486 -0.77491 
2.500 408.0 66.835 33.206 147.568 -0.49150 -0.77351 
2.525 408.0 67.914 33.076 147.727 -0.48836 -0.77332 
2.550 408.0 67.404 32.933 147.920 -0.48468 -0.77325 
2.575 408.0 72.218 32.894 148.056 -0.48255 -0.77393 
2.600 408.0 67.714 32.842 148.288 -0.47902 -0.77523 
2.625 399.0 69.191 32.824 148.359 -0.47793 -0.77560 
2.650 399.0 72.462 32.792 148.381 -0.47738 -0.77541 
2.675 399.0 63.765 32.787 148.440 -0.47655 -0.77583 
2.700 407.0 68.188 32.793 148.457 -0.47636 -0.77603 
2.725 407.0 64.342 32.751 148.483 -0.47569 -0.77574 
2.750 407.0 67.792 32.760 148.474 -0.47589 -0.77578 
2.775 407.0 59.558 32.727 148.425 -0.47630 -0.77496 
2.800 407.0 58.799 32.698 148.359 -0.47696 -0.77406 
2.825 416.0 69.195 32.689 148.320 -0.47742 -0.77361 
2.850 416.0 66.002 32.677 148.256 -0.47820 -0.77293 
2.875 416.0 64.860 32.641 148.194 -0.47876 -0.77197 
2.900 416.0 63.890 32.625 148.136 -0.47941 -0.77129 
2.925 416.0 63.157 32.582 148.007 -0.48082 -0.76967 
2.950 416.0 63.183 32.517 147.996 -0.48045 -0.76877 
2.975 416.0 60.147 32.503 147.911 -0.48149 -0.76788 
3.000 425.0 68.362 32.449 147.870 -0.48161 -0.76686 
3.025 425.0 66.059 32.400 147.819 -0.48191 -0.76582 
3.050 425.0 63.475 32.335 147.785 -0.48185 -0.76471 
3.075 425.0 61.217 32.299 147.693 -0.48279 -0.76349 
3.100 425.0 78.341 32.290 147.694 -0.48270 -0.76337 
3.125 425.0 76.083 32.243 147.674 -0.48259 -0.76261 
3.150 425.0 72.450 32.159 147.666 -0.48202 -0.76147 
3.175 425.0 67.910 32.058 147.634 -0.48162 -0.75991 
3.200 425.0 64.671 32.006 147.624 -0.48132 -0.75915 
3.225 425.0 61.971 31.925 147.717 -0.47943 -0.75889 
3.250 425.0 58.785 31.859 147.766 -0.47825 -0.75843 
3.275 438.0 70.065 31.798 147.931 -0.47555 -0.75900 
3.300 438.0 64.933 31.720 148.104 -0.47262 -0.75940 
3.325 448.0 69.463 31.672 148.432 -0.46787 -0.76147 
3.350 448.0 65.687 31.672 148.783 -0.46319 -0.76432 
3.375 448.0 65.487 31.683 149.151 -0.45836 -0.76743 
3.400 448.0 65.224 31.793 149.450 -0.45522 -0.77129 
3.425 448.0 63.983 31.902 149.686 -0.45290 -0.77461 
3.450 448.0 62.008 32.027 149.926 -0.45061 -0.77816 
3.475 457.0 69.213 32.218 150.006 -0.45097 -0.78130 
3.500 457.0 66.003 32.325 150.116 -0.45027 -0.78355 
3.525 457.0 63.271 32.484 150.219 -0.45004 -0.78640 
3.550 457.0 61.226 32.571 150.238 -0.45041 -0.78767 
3.575 467.0 69.417 32.805 150.319 -0.45098 -0.79126 
3.600 467.0 67.569 32.926 150.361 -0.45125 -0.79310 
3.625 467.0 66.097 33.152 150.287 -0.45387 -0.79530 
3.650 467.0 64.793 33.286 150.320 -0.45433 -0.79718 
3.675 467.0 63.897 33.527 150.250 -0.45694 -0.79950 
3.700 467.0 63.003 33.740 150.145 -0.45985 -0.80115 
3.725 467.0 62.602 33.954 149.962 -0.46382 -0.80213 
3.750 467.0 61.501 34.165 149.803 -0.46743 -0.80321 
3.775 467.0 59.914 34.392 149.570 -0.47215 -0.80381 
3.800 478.0 68.623 34.645 149.334 -0.47708 -0.80457 
3.825 478.0 65.683 34.790 149.019 -0.48241 -0.80346 
3.850 478.0 61.802 35.003 148.705 -0.48814 -0.80300 
3.875 488.0 66.993 35.284 148.380 -0.49442 -0.80304 
3.900 488.0 62.502 35.480 147.946 -0.50168 -0.80118 
3.925 498.0 68.047 35.614 147.474 -0.50909 -0.79830 
3.950 498.0 64.610 35.949 146.988 -0.51785 -0.79706 
3.975 498.0 61.388 35.934 146.429 -0.52551 -0.79182 
4.000 509.0 68.688 36.270 145.965 -0.53391 -0.79051 
4.025 509.0 65.898 36.263 145.358 -0.54222 -0.78475 
4.050 509.0 63.469 36.505 144.821 -0.55099 -0.78169 
4.075 509.0 60.882 36.516 144.185 -0.55969 -0.77562 
4.100 522.0 70.315 36.741 143.605 -0.56886 -0.77172 
4.125 522.0 67.810 36.745 142.820 -0.57940 -0.76389 
4.150 522.0 65.443 36.918 142.190 -0.58881 -0.75882 
4.175 522.0 64.846 36.893 141.504 -0.59770 -0.75152 
4.200 522.0 63.551 37.043 140.656 -0.60967 -0.74372 
4.225 522.0 63.487 36.977 139.898 -0.61906 -0.73510 
4.250 522.0 62.673 37.020 139.056 -0.63006 -0.72623 
4.275 522.0 61.653 36.920 138.240 -0.63969 -0.71647 
4.300 561.0 67.215 36.860 137.125 -0.65312 -0.70346 
4.325 561.0 73.020 36.710 136.313 -0.66200 -0.69306 
4.350 561.0 78.665 36.637 135.717 -0.66866 -0.68561 
4.375 548.0 69.867 36.441 135.048 -0.67522 -0.67634 
4.400 548.0 74.090 36.280 134.729 -0.67779 -0.67141 
4.425 548.0 76.878 36.123 134.283 -0.68180 -0.66495 
4.450 548.0 79.083 35.893 133.798 -0.68562 -0.65744 
4.475 537.0 70.013 35.813 133.408 -0.68944 -0.65216 
4.500 537.0 70.887 35.614 133.183 -0.69039 -0.64792 
4.525 537.0 72.189 35.534 132.774 -0.69433 -0.64238 
4.550 537.0 72.398 35.445 132.367 -0.69813 -0.63675 
4.575 537.0 72.174 35.267 132.044 -0.70019 -0.63142 
4.600 537.0 70.975 35.137 131.704 -0.70277 -0.62624 
4.625 537.0 69.876 35.057 131.504 -0.70425 -0.62316 
4.650 537.0 68.678 35.013 131.160 -0.70759 -0.61858 
4.675 537.0 67.711 34.938 130.785 -0.71094 -0.61334 
4.700 537.0 65.181 34.843 130.464 -0.71349 -0.60862 
4.725 537.0 64.524 34.691 130.174 -0.71515 -0.60379 
4.750 537.0 62.455 34.464 129.829 -0.71661 -0.59767 
4.775 537.0 60.441 34.440 129.576 -0.71901 -0.59431 
4.800 550.0 70.486 34.347 129.155 -0.72244 -0.58826 
4.825 550.0 67.521 34.236 128.810 -0.72487 -0.58301 
4.850 550.0 65.474 34.056 128.700 -0.72417 -0.58018 
4.875 550.0 63.038 34.053 128.204 -0.72913 -0.57386 
4.900 550.0 59.537 33.951 127.981 -0.73031 -0.57019 
4.925 564.0 70.143 33.842 127.669 -0.73227 -0.56532 
4.950 564.0 67.744 33.722 127.407 -0.73357 -0.56101 
4.975 564.0 64.988 33.638 127.061 -0.73605 -0.55588 
5.000 564.0 63.000 33.561 126.757 -0.73816 -0.55135 
5.025 575.0 69.075 33.420 126.611 -0.73801 -0.54832 
5.050 575.0 66.155 33.335 126.284 -0.74020 -0.54340 
5.075 575.0 63.469 33.204 126.021 -0.74120 -0.53892 
5.100 575.0 59.108 33.025 125.834 -0.74091 -0.53503 
5.125 592.0 69.630 32.989 125.517 -0.74345 -0.53063 
5.150 592.0 65.665 32.923 125.294 -0.74474 -0.52719 
5.175 592.0 61.292 32.818 124.935 -0.74680 -0.52164 
5.200 604.0 66.753 32.646 124.658 -0.74726 -0.51662 
5.225 604.0 63.277 32.547 124.518 -0.74732 -0.51397 
5.250 616.0 68.574 32.564 124.309 -0.74940 -0.51138 
5.275 616.0 64.492 32.362 124.042 -0.74930 -0.50620 
5.300 628.0 69.779 32.293 123.648 -0.75190 -0.50047 
5.325 628.0 65.950 32.125 123.569 -0.75048 -0.49804 
5.350 628.0 61.610 32.001 123.238 -0.75176 -0.49265 
5.375 643.0 68.753 31.863 123.120 -0.75100 -0.48995 
5.400 643.0 64.747 31.776 122.990 -0.75098 -0.48751 
5.425 643.0 60.483 31.645 122.733 -0.75144 -0.48303 
5.450 658.0 67.431 31.477 122.375 -0.75220 -0.47691 
5.475 658.0 62.520 31.432 122.561 -0.75005 -0.47895 
5.500 672.0 68.433 31.332 122.103 -0.75250 -0.47210 
5.525 672.0 63.523 31.219 122.018 -0.75165 -0.47001 
5.550 685.0 68.427 31.154 121.692 -0.75342 -0.46518 
5.575 685.0 62.960 30.816 121.575 -0.74965 -0.46074 
5.600 700.0 67.777 30.858 121.523 -0.75066 -0.46042 
5.625 700.0 62.390 30.713 121.220 -0.75102 -0.45519 
5.650 718.0 69.357 30.646 121.073 -0.75122 -0.45268 
5.675 718.0 63.660 30.538 120.998 -0.75027 -0.45077 
5.700 736.0 70.175 30.381 121.040 -0.74765 -0.44994 
5.725 736.0 64.312 30.194 120.734 -0.74729 -0.44430 
5.750 736.0 58.733 30.257 120.710 -0.74840 -0.44454 
5.775 760.0 67.048 30.005 120.540 -0.74597 -0.44011 
5.800 778.0 71.435 29.786 120.354 -0.74407 -0.43574 
5.825 778.0 64.998 29.606 119.724 -0.74604 -0.42595 
5.850 780.0 59.747 29.696 120.416 -0.74222 -0.43573 
5.875 780.0 53.038 29.163 119.913 -0.73767 -0.42440 
5.900 780.0 47.330 29.493 120.109 -0.74139 -0.42993 
5.925 780.0 41.472 29.280 120.000 -0.73888 -0.42659 
5.950 780.0 37.303 29.107 120.126 -0.73520 -0.42663 
5.975 780.0 32.979 28.936 119.646 -0.73601 -0.41889 
6.000 780.0 29.899 29.139 119.679 -0.73902 -0.42117 
6.025 780.0 26.455 29.099 119.576 -0.73914 -0.41948 
6.050 780.0 23.697 28.702 119.910 -0.73029 -0.42010 
6.075 780.0 21.420 28.631 119.237 -0.73399 -0.41084 
6.100 780.0 19.275 28.590 120.003 -0.72777 -0.42023 
6.125 780.0 17.184 28.526 120.114 -0.72589 -0.42102 
6.150 780.0 15.541 28.842 120.035 -0.73163 -0.42299 
6.175 780.0 14.084 28.578 119.441 -0.73165 -0.41295 
6.200 780.0 12.784 28.364 120.039 -0.72378 -0.41853 
6.225 780.0 11.725 28.732 121.525 -0.71863 -0.44080 
6.250 780.0 10.627 28.767 119.908 -0.73135 -0.42067 
6.275 780.0 9.556 28.189 119.629 -0.72382 -0.41168 
6.300 780.0 8.705 28.770 120.195 -0.72928 -0.42437 
6.325 780.0 7.941 28.895 120.048 -0.73240 -0.42366 
6.350 780.0 7.114 27.581 120.474 -0.70739 -0.41624 
6.375 780.0 6.306 29.154 120.370 -0.73412 -0.43019 
6.400 780.0 5.644 28.636 119.823 -0.72984 -0.41837 
6.425 780.0 5.057 29.094 118.821 -0.74453 -0.40966 
6.450 780.0 4.477 29.596 119.879 -0.74472 -0.42788 
6.475 780.0 3.962 29.654 121.325 -0.73458 -0.44707 
6.500 780.0 3.534 29.506 120.318 -0.74003 -0.43275 

# MINIMA:
0.600 371.0 3.534 27.581 118.821 -0.75342 -0.96985 

# MAXIMA:
6.500 3898.9 80.247 41.710 167.496 -0.21508 -0.40966 

# PEAKS:

# END SPECTRUM


# SPECTRUM:
2

# START TIME:
14:35:12

# END TIME:
14:45:54

# THETA ANGLE:
0.00 ø

# INCIDENCE ANGLE:
60.00 ø

# ACCUMULATION NUMBER:
1

# ELLIPSOMETRIC CONFIGURATION:
+90.00 øModulator
-45.00 øAnalyser

# INTEGRATION TIME:
500 ms

# FIRST POINT:
0.6000 eV

# LAST POINT:
6.5000 eV

# INCREMENT:
0.0250 eV

# NUMBER OF POINTS:
237

# DATA:
eV Hv S0 Psi Delta Is Ic 
0.600 3898.9 57.623 40.642 163.993 -0.27257 -0.95013 
0.625 3397.3 78.923 40.497 163.443 -0.28145 -0.94672 
0.650 2800.4 78.596 40.384 163.127 -0.28650 -0.94456 
0.675 2603.5 78.634 40.243 162.619 -0.29462 -0.94121 
0.700 1905.0 77.146 40.089 162.002 -0.30446 -0.93712 
0.725 1606.6 78.972 39.906 161.569 -0.31117 -0.93375 
0.750 1505.0 78.249 39.871 161.157 -0.31781 -0.93128 
0.775 1308.1 75.295 39.694 160.696 -0.32492 -0.92764 
0.800 812.8 63.255 39.644 160.267 -0.33175 -0.92488 
0.825 1111.3 69.475 39.483 159.891 -0.33744 -0.92168 
0.850 1111.3 68.969 39.390 159.456 -0.34422 -0.91851 
0.875 812.8 76.793 39.230 158.959 -0.35178 -0.91445 
0.900 914.4 74.161 39.142 158.554 -0.35801 -0.91137 
0.925 1016.0 70.398 39.012 158.099 -0.36488 -0.90764 
0.950 1016.0 62.861 39.042 157.735 -0.37073 -0.90550 
0.975 717.6 61.038 38.806 157.164 -0.37906 -0.90016 
1.000 1016.0 65.759 38.830 156.809 -0.38470 -0.89796 
1.025 1016.0 70.293 38.602 156.332 -0.39147 -0.89314 
1.050 622.3 60.365 38.486 155.853 -0.39854 -0.88901 
1.075 1022.4 72.189 38.475 155.526 -0.40358 -0.88664 
1.100 920.8 63.875 38.330 155.019 -0.41092 -0.88199 
1.125 920.8 65.867 38.275 154.602 -0.41714 -0.87857 
1.150 825.5 62.995 38.109 154.200 -0.42269 -0.87440 
1.175 825.5 67.953 38.004 153.780 -0.42871 -0.87048 
1.200 927.1 70.592 37.961 153.350 -0.43506 -0.86692 
1.225 628.7 62.564 37.838 152.957 -0.44052 -0.86298 
1.250 431.8 64.248 37.744 152.507 -0.44691 -0.85877 
1.275 730.3 69.596 37.546 152.148 -0.45146 -0.85439 
1.300 730.3 77.226 37.381 151.660 -0.45801 -0.84920 
1.325 831.9 65.746 37.222 151.332 -0.46217 -0.84527 
1.350 533.4 70.030 37.102 150.953 -0.46720 -0.84121 
1.375 933.5 77.624 37.042 150.574 -0.47246 -0.83760 
1.400 635.0 65.885 37.089 150.256 -0.47732 -0.83535 
1.425 1435.1 70.551 36.807 149.836 -0.48206 -0.82947 
1.450 2336.8 60.918 37.320 149.516 -0.48918 -0.83099 
1.475 780.0 0.000 0.000 0.000 0.00000 0.00000 
1.500 485.0 58.546 36.367 148.784 -0.49492 -0.81668 
1.525 593.0 75.562 36.242 148.421 -0.49939 -0.81242 
1.550 532.0 70.985 36.101 148.098 -0.50318 -0.80832 
1.575 572.0 66.208 35.983 147.759 -0.50727 -0.80427 
1.600 572.0 75.970 35.920 147.395 -0.51200 -0.80044 
1.625 525.0 70.546 35.707 147.072 -0.51524 -0.79558 
1.650 525.0 65.569 35.663 146.810 -0.51860 -0.79280 
1.675 516.0 69.499 35.487 146.427 -0.52278 -0.78767 
1.700 506.0 69.965 35.416 146.113 -0.52664 -0.78411 
1.725 495.0 69.976 35.316 145.781 -0.53054 -0.78010 
1.750 495.0 79.633 35.203 145.495 -0.53368 -0.77635 
1.775 477.0 70.588 35.044 145.181 -0.53685 -0.77188 
1.800 462.0 71.402 34.926 144.885 -0.54001 -0.76794 
1.825 462.0 77.820 34.791 144.597 -0.54293 -0.76389 
1.850 449.0 70.918 34.653 144.369 -0.54498 -0.76034 
1.875 449.0 77.602 34.576 144.023 -0.54900 -0.75627 
1.900 434.0 69.017 34.495 143.684 -0.55286 -0.75219 
1.925 434.0 76.022 34.347 143.442 -0.55492 -0.74835 
1.950 423.0 69.533 34.187 143.182 -0.55710 -0.74419 
1.975 423.0 76.903 34.120 142.926 -0.55990 -0.74101 
2.000 413.0 70.091 34.023 142.623 -0.56303 -0.73703 
2.025 413.0 73.131 33.911 142.403 -0.56496 -0.73370 
2.050 413.0 72.557 33.807 142.091 -0.56811 -0.72953 
2.075 400.0 69.303 33.731 141.785 -0.57137 -0.72568 
2.100 400.0 73.998 33.583 141.506 -0.57365 -0.72133 
2.125 400.0 77.445 33.494 141.206 -0.57666 -0.71738 
2.150 392.0 69.745 33.325 140.973 -0.57812 -0.71322 
2.175 392.0 72.607 33.309 140.693 -0.58146 -0.71022 
2.200 392.0 75.061 33.171 140.406 -0.58377 -0.70582 
2.225 392.0 78.141 33.075 140.075 -0.58699 -0.70139 
2.250 384.0 69.605 32.994 139.744 -0.59028 -0.69712 
2.275 384.0 71.634 32.854 139.425 -0.59286 -0.69230 
2.300 384.0 72.797 32.790 139.064 -0.59660 -0.68786 
2.325 384.0 74.789 32.548 138.793 -0.59753 -0.68238 
2.350 384.0 76.807 32.410 138.490 -0.59978 -0.67768 
2.375 384.0 78.222 32.190 138.206 -0.60094 -0.67225 
2.400 384.0 80.024 31.991 137.921 -0.60224 -0.66700 
2.425 375.0 71.296 31.724 137.696 -0.60207 -0.66159 
2.450 367.0 69.799 31.457 137.597 -0.60039 -0.65743 
2.475 367.0 69.672 31.252 137.500 -0.59928 -0.65400 
2.500 397.0 67.263 30.861 137.642 -0.59336 -0.65077 
2.525 397.0 67.749 30.684 137.785 -0.58975 -0.65006 
2.550 397.0 67.025 30.526 138.027 -0.58523 -0.65057 
2.575 397.0 71.646 30.463 138.162 -0.58297 -0.65115 
2.600 397.0 67.336 30.366 138.375 -0.57946 -0.65208 
2.625 389.0 69.375 30.352 138.470 -0.57822 -0.65287 
2.650 389.0 72.135 30.331 138.502 -0.57761 -0.65293 
2.675 389.0 63.422 30.283 138.533 -0.57671 -0.65261 
2.700 397.0 68.108 30.302 138.526 -0.57701 -0.65280 
2.725 397.0 64.235 30.256 138.603 -0.57561 -0.65298 
2.750 397.0 67.303 30.275 138.540 -0.57655 -0.65258 
2.775 397.0 59.133 30.217 138.484 -0.57652 -0.65127 
2.800 405.0 67.180 30.212 138.378 -0.57766 -0.65014 
2.825 405.0 66.942 30.153 138.300 -0.57788 -0.64860 
2.850 405.0 63.776 30.170 138.201 -0.57919 -0.64781 
2.875 405.0 62.295 30.119 138.116 -0.57956 -0.64629 
2.900 405.0 61.179 30.081 137.972 -0.58074 -0.64434 
2.925 405.0 60.321 30.043 137.891 -0.58121 -0.64303 
2.950 405.0 60.632 29.986 137.774 -0.58185 -0.64111 
2.975 415.0 68.336 29.979 137.687 -0.58274 -0.64014 
3.000 415.0 66.875 29.908 137.584 -0.58305 -0.63817 
3.025 415.0 64.159 29.843 137.477 -0.58347 -0.63624 
3.050 415.0 61.724 29.773 137.375 -0.58376 -0.63428 
3.075 415.0 59.381 29.730 137.270 -0.58442 -0.63265 
3.100 415.0 75.283 29.675 137.191 -0.58462 -0.63112 
3.125 415.0 73.402 29.596 137.109 -0.58456 -0.62927 
3.150 415.0 69.599 29.515 137.030 -0.58444 -0.62739 
3.175 415.0 65.759 29.439 136.980 -0.58406 -0.62588 
3.200 415.0 62.405 29.338 136.954 -0.58310 -0.62429 
3.225 424.0 69.951 29.241 136.906 -0.58240 -0.62251 
3.250 424.0 66.661 29.154 136.996 -0.58035 -0.62226 
3.275 424.0 62.827 29.021 137.117 -0.57737 -0.62170 
3.300 424.0 58.192 28.920 137.243 -0.57473 -0.62158 
3.325 439.0 68.356 28.839 137.553 -0.57034 -0.62356 
3.350 439.0 63.958 28.768 137.937 -0.56525 -0.62640 
3.375 439.0 63.876 28.740 138.325 -0.56065 -0.62980 
3.400 439.0 63.336 28.771 138.671 -0.55723 -0.63363 
3.425 439.0 61.703 28.890 139.035 -0.55465 -0.63883 
3.450 439.0 60.001 28.955 139.307 -0.55239 -0.64236 
3.475 449.0 67.979 29.108 139.525 -0.55177 -0.64662 
3.500 449.0 64.955 29.205 139.721 -0.55070 -0.64985 
3.525 449.0 61.903 29.306 139.855 -0.55037 -0.65254 
3.550 449.0 59.594 29.412 139.991 -0.55006 -0.65532 
3.575 460.0 68.593 29.626 140.157 -0.55062 -0.65987 
3.600 460.0 66.304 29.729 140.252 -0.55070 -0.66220 
3.625 460.0 64.530 29.927 140.344 -0.55187 -0.66577 
3.650 460.0 63.313 30.101 140.430 -0.55279 -0.66892 
3.675 460.0 62.288 30.276 140.507 -0.55382 -0.67200 
3.700 460.0 61.540 30.511 140.543 -0.55594 -0.67544 
3.725 460.0 60.637 30.709 140.516 -0.55837 -0.67775 
3.750 460.0 59.606 30.945 140.502 -0.56103 -0.68063 
3.775 470.0 67.744 31.159 140.391 -0.56457 -0.68223 
3.800 470.0 64.825 31.443 140.294 -0.56864 -0.68479 
3.825 470.0 61.593 31.581 140.132 -0.57198 -0.68485 
3.850 481.0 68.735 31.955 139.882 -0.57871 -0.68681 
3.875 481.0 63.602 32.141 139.714 -0.58255 -0.68727 
3.900 481.0 59.475 32.397 139.310 -0.58989 -0.68604 
3.925 495.0 68.629 32.691 139.004 -0.59637 -0.68616 
3.950 495.0 64.900 32.944 138.556 -0.60414 -0.68420 
3.975 495.0 61.498 33.173 138.207 -0.61045 -0.68292 
4.000 506.0 68.720 33.440 137.773 -0.61809 -0.68101 
4.025 506.0 65.682 33.799 137.259 -0.62747 -0.67900 
4.050 506.0 62.902 33.973 136.682 -0.63585 -0.67432 
4.075 506.0 60.487 34.165 136.140 -0.64394 -0.67008 
4.100 518.0 68.505 34.460 135.545 -0.65348 -0.66604 
4.125 518.0 65.693 34.768 134.870 -0.66398 -0.66098 
4.150 518.0 63.461 34.876 134.143 -0.67326 -0.65341 
4.175 518.0 62.192 35.036 133.358 -0.68355 -0.64544 
4.200 518.0 61.739 35.272 132.572 -0.69438 -0.63789 
4.225 518.0 61.474 35.488 131.666 -0.70623 -0.62848 
4.250 518.0 61.182 35.572 130.661 -0.71787 -0.61661 
4.275 518.0 60.053 35.715 129.547 -0.73096 -0.60356 
4.300 549.0 68.050 35.678 128.057 -0.74608 -0.58409 
4.325 549.0 75.244 35.655 126.937 -0.75715 -0.56924 
4.350 538.0 70.237 35.616 125.911 -0.76686 -0.55535 
4.375 538.0 75.168 35.472 125.127 -0.77306 -0.54386 
4.400 528.0 69.733 35.247 124.337 -0.77835 -0.53168 
4.425 528.0 73.339 35.073 123.571 -0.78368 -0.52010 
4.450 528.0 76.321 34.932 122.958 -0.78779 -0.51077 
4.475 519.0 69.201 34.755 122.390 -0.79100 -0.50179 
4.500 519.0 70.793 34.550 121.859 -0.79347 -0.49310 
4.525 519.0 72.322 34.411 121.344 -0.79637 -0.48505 
4.550 519.0 72.803 34.278 120.834 -0.79921 -0.47707 
4.575 519.0 72.289 34.188 120.442 -0.80146 -0.47100 
4.600 519.0 72.751 34.036 120.132 -0.80230 -0.46567 
4.625 519.0 71.382 33.863 119.581 -0.80477 -0.45682 
4.650 519.0 70.723 33.775 119.317 -0.80584 -0.45254 
4.675 519.0 69.265 33.738 118.814 -0.80936 -0.44520 
4.700 519.0 67.100 33.622 118.496 -0.81044 -0.43995 
4.725 519.0 66.274 33.483 118.134 -0.81155 -0.43394 
4.750 519.0 63.792 33.308 117.597 -0.81343 -0.42520 
4.775 519.0 61.835 33.262 117.252 -0.81542 -0.42000 
4.800 519.0 60.078 33.246 116.993 -0.81711 -0.41621 
4.825 532.0 69.629 33.109 116.503 -0.81892 -0.40836 
4.850 532.0 68.260 32.885 116.206 -0.81818 -0.40270 
4.875 532.0 64.678 32.938 115.805 -0.82165 -0.39730 
4.900 532.0 62.951 32.853 115.416 -0.82323 -0.39118 
4.925 544.0 71.467 32.694 114.889 -0.82471 -0.38263 
4.950 544.0 67.994 32.588 114.683 -0.82467 -0.37902 
4.975 544.0 65.540 32.539 114.364 -0.82612 -0.37412 
5.000 544.0 63.155 32.453 114.008 -0.82726 -0.36846 
5.025 544.0 60.504 32.325 113.585 -0.82822 -0.36158 
5.050 557.0 69.116 32.202 113.244 -0.82865 -0.35592 
5.075 557.0 65.654 32.032 113.032 -0.82759 -0.35184 
5.100 557.0 61.713 32.013 112.566 -0.83016 -0.34499 
5.125 571.0 69.596 31.862 112.332 -0.82942 -0.34071 
5.150 571.0 65.472 31.836 112.026 -0.83085 -0.33613 
5.175 571.0 62.080 31.635 111.592 -0.83046 -0.32867 
5.200 585.0 70.162 31.607 111.343 -0.83147 -0.32490 
5.225 585.0 64.781 31.546 111.157 -0.83163 -0.32185 
5.250 585.0 61.068 31.513 110.778 -0.83325 -0.31616 
5.275 599.0 68.354 31.406 110.521 -0.83306 -0.31182 
5.300 599.0 64.070 31.241 109.988 -0.83344 -0.30316 
5.325 599.0 59.852 31.187 109.670 -0.83429 -0.29823 
5.350 613.0 66.850 31.072 109.595 -0.83292 -0.29650 
5.375 613.0 62.892 30.934 109.358 -0.83201 -0.29231 
5.400 626.0 68.986 30.890 109.115 -0.83255 -0.28854 
5.425 626.0 64.354 30.687 108.721 -0.83133 -0.28173 
5.450 626.0 60.305 30.558 108.310 -0.83127 -0.27508 
5.475 641.0 67.539 30.524 107.920 -0.83258 -0.26924 
5.500 641.0 62.729 30.398 107.886 -0.83071 -0.26808 
5.525 654.0 67.562 30.365 107.461 -0.83214 -0.26175 
5.550 654.0 62.513 30.177 107.214 -0.83017 -0.25720 
5.575 668.0 67.489 30.005 107.298 -0.82694 -0.25753 
5.600 668.0 62.288 29.897 106.925 -0.82679 -0.25159 
5.625 683.0 67.296 29.897 106.631 -0.82806 -0.24734 
5.650 683.0 62.034 29.674 106.075 -0.82665 -0.23820 
5.675 700.0 68.377 29.539 106.051 -0.82442 -0.23719 
5.700 700.0 61.988 29.500 106.027 -0.82384 -0.23665 
5.725 719.0 68.710 29.304 105.575 -0.82228 -0.22921 
5.750 719.0 62.214 29.219 105.591 -0.82073 -0.22901 
5.775 738.0 67.852 29.078 105.286 -0.81944 -0.22396 
5.800 738.0 61.097 29.084 105.436 -0.81895 -0.22613 
5.825 757.0 67.065 28.840 105.160 -0.81567 -0.22100 
5.850 757.0 60.309 28.606 104.035 -0.81558 -0.20388 
5.875 779.0 65.660 28.700 105.213 -0.81292 -0.22106 
5.900 780.0 59.514 28.625 104.320 -0.81490 -0.20802 
5.925 780.0 53.588 28.077 104.524 -0.80399 -0.20829 
5.950 780.0 47.006 28.421 103.916 -0.81260 -0.20134 
5.975 780.0 41.679 28.108 103.842 -0.80700 -0.19884 
6.000 780.0 37.255 28.363 104.341 -0.81000 -0.20709 
6.025 780.0 32.836 28.040 103.461 -0.80702 -0.19317 
6.050 780.0 29.372 27.905 102.978 -0.80606 -0.18577 
6.075 780.0 26.689 27.874 103.376 -0.80414 -0.19122 
6.100 780.0 23.893 27.665 103.871 -0.79846 -0.19717 
6.125 780.0 21.218 27.839 103.390 -0.80343 -0.19126 
6.150 780.0 19.034 27.150 103.505 -0.78963 -0.18965 
6.175 780.0 17.461 27.620 104.347 -0.79594 -0.20357 
6.200 780.0 15.825 27.472 103.330 -0.79653 -0.18873 
6.225 780.0 14.338 27.133 102.808 -0.79155 -0.17995 
6.250 780.0 13.042 27.364 103.825 -0.79277 -0.19509 
6.275 780.0 11.928 27.724 103.231 -0.80174 -0.18851 
6.300 780.0 10.494 27.104 102.818 -0.79094 -0.17996 
6.325 780.0 9.628 27.694 104.191 -0.79790 -0.20177 
6.350 780.0 8.614 27.577 103.924 -0.79658 -0.19749 
6.375 780.0 7.598 27.062 103.805 -0.78687 -0.19335 
6.400 780.0 6.754 27.346 104.268 -0.79088 -0.20112 
6.425 780.0 6.071 27.412 104.268 -0.79218 -0.20145 
6.450 780.0 5.340 27.342 103.678 -0.79284 -0.19296 
6.475 780.0 4.656 29.404 104.760 -0.82720 -0.21794 
6.500 780.0 4.149 28.098 103.800 -0.80695 -0.19820 

# MINIMA:
0.600 367.0 0.000 0.000 0.000 -0.83429 -0.95013 

# MAXIMA:
6.500 3898.9 80.024 40.642 163.993 0.00000 0.00000 

# PEAKS:

# END SPECTRUM


# SPECTRUM:
3

# START TIME:
14:46:44

# END TIME:
14:57:23

# THETA ANGLE:
0.00 ø

# INCIDENCE ANGLE:
65.00 ø

# ACCUMULATION NUMBER:
1

# ELLIPSOMETRIC CONFIGURATION:
+90.00 øModulator
-45.00 øAnalyser

# INTEGRATION TIME:
500 ms

# FIRST POINT:
0.6000 eV

# LAST POINT:
6.5000 eV

# INCREMENT:
0.0250 eV

# NUMBER OF POINTS:
237

# DATA:
eV Hv S0 Psi Delta Is Ic 
0.600 3600.5 60.601 39.423 159.342 -0.34612 -0.91803 
0.625 3003.6 78.703 39.136 158.555 -0.35797 -0.91134 
0.650 2501.9 79.335 38.995 158.142 -0.36416 -0.90780 
0.675 2305.1 79.508 38.842 157.506 -0.37378 -0.90266 
0.700 1708.2 77.528 38.671 156.747 -0.38519 -0.89644 
0.725 1409.7 70.482 38.500 156.115 -0.39452 -0.89093 
0.750 1409.7 77.122 38.353 155.611 -0.40187 -0.88636 
0.775 1212.9 71.306 38.242 155.042 -0.41027 -0.88151 
0.800 812.8 70.656 38.152 154.513 -0.41807 -0.87702 
0.825 1111.3 77.368 37.925 153.977 -0.42541 -0.87136 
0.850 1111.3 76.686 37.818 153.383 -0.43402 -0.86608 
0.875 717.6 63.086 37.682 152.789 -0.44243 -0.86048 
0.900 819.2 62.682 37.526 152.177 -0.45094 -0.85446 
0.925 1016.0 77.183 37.496 151.723 -0.45758 -0.85063 
0.950 1016.0 68.077 37.376 151.166 -0.46529 -0.84519 
0.975 717.6 65.174 37.257 150.508 -0.47443 -0.83882 
1.000 1016.0 70.844 37.178 150.070 -0.48046 -0.83453 
1.025 1016.0 75.423 37.067 149.502 -0.48818 -0.82882 
1.050 616.0 63.477 36.823 148.794 -0.49716 -0.82070 
1.075 1016.0 75.676 36.742 148.356 -0.50300 -0.81619 
1.100 914.4 66.584 36.589 147.709 -0.51136 -0.80917 
1.125 914.4 68.543 36.573 147.265 -0.51752 -0.80505 
1.150 812.8 64.521 36.453 146.675 -0.52512 -0.79865 
1.175 812.8 69.533 36.281 146.196 -0.53078 -0.79276 
1.200 914.4 71.669 36.147 145.574 -0.53857 -0.78578 
1.225 616.0 61.328 35.901 145.019 -0.54463 -0.77836 
1.250 425.5 64.192 35.954 144.523 -0.55168 -0.77409 
1.275 723.9 68.551 35.753 144.033 -0.55699 -0.76755 
1.300 723.9 76.242 35.653 143.552 -0.56276 -0.76196 
1.325 825.5 65.106 35.552 143.060 -0.56859 -0.75619 
1.350 527.1 70.775 35.471 142.659 -0.57330 -0.75147 
1.375 927.1 77.384 35.221 142.123 -0.57854 -0.74379 
1.400 628.7 66.599 35.247 141.691 -0.58432 -0.73964 
1.425 1428.8 72.962 35.130 141.260 -0.58902 -0.73416 
1.450 2330.5 63.106 35.180 140.697 -0.59657 -0.72879 
1.475 780.0 0.000 0.000 0.000 0.00000 0.00000 
1.500 493.0 70.836 34.503 139.684 -0.60405 -0.71188 
1.525 590.0 77.674 34.389 139.355 -0.60720 -0.70731 
1.550 531.0 73.186 34.246 138.784 -0.61302 -0.69985 
1.575 569.0 66.500 34.121 138.422 -0.61636 -0.69475 
1.600 569.0 75.951 34.012 137.977 -0.62078 -0.68890 
1.625 522.0 72.005 33.779 137.485 -0.62459 -0.68128 
1.650 522.0 65.805 33.656 137.140 -0.62757 -0.67629 
1.675 522.0 79.175 33.632 136.639 -0.63324 -0.67055 
1.700 502.0 68.635 33.430 136.231 -0.63609 -0.66403 
1.725 492.0 69.806 33.320 135.798 -0.64004 -0.65812 
1.750 492.0 79.715 33.184 135.401 -0.64326 -0.65233 
1.775 473.0 69.067 33.000 134.990 -0.64610 -0.64586 
1.800 459.0 71.118 32.942 134.559 -0.65033 -0.64040 
1.825 459.0 77.592 32.817 134.184 -0.65323 -0.63489 
1.850 446.0 70.139 32.667 133.723 -0.65675 -0.62810 
1.875 446.0 76.182 32.525 133.435 -0.65839 -0.62337 
1.900 433.0 70.080 32.404 133.017 -0.66161 -0.61733 
1.925 433.0 77.331 32.250 132.658 -0.66377 -0.61162 
1.950 422.0 71.130 32.168 132.301 -0.66665 -0.60663 
1.975 422.0 78.200 32.052 131.924 -0.66932 -0.60105 
2.000 411.0 70.195 31.966 131.560 -0.67214 -0.59591 
2.025 411.0 72.836 31.839 131.301 -0.67336 -0.59158 
2.050 411.0 71.964 31.727 130.798 -0.67721 -0.58452 
2.075 399.0 70.187 31.594 130.411 -0.67956 -0.57857 
2.100 399.0 73.999 31.466 130.071 -0.68144 -0.57323 
2.125 399.0 77.931 31.410 129.657 -0.68487 -0.56772 
2.150 391.0 69.732 31.263 129.294 -0.68662 -0.56188 
2.175 391.0 72.503 31.176 128.911 -0.68928 -0.55639 
2.200 391.0 74.836 31.089 128.506 -0.69208 -0.55063 
2.225 391.0 77.738 30.980 128.081 -0.69475 -0.54437 
2.250 384.0 70.215 30.897 127.624 -0.69798 -0.53799 
2.275 384.0 72.041 30.751 127.215 -0.69987 -0.53153 
2.300 384.0 73.286 30.626 126.767 -0.70234 -0.52479 
2.325 384.0 75.416 30.398 126.358 -0.70296 -0.51748 
2.350 384.0 76.946 30.267 125.882 -0.70542 -0.51030 
2.375 384.0 78.182 30.049 125.496 -0.70577 -0.50335 
2.400 384.0 80.035 29.850 125.061 -0.70672 -0.49598 
2.425 375.0 70.494 29.536 124.724 -0.70503 -0.48863 
2.450 367.0 69.193 29.265 124.450 -0.70332 -0.48248 
2.475 367.0 68.829 29.006 124.308 -0.70060 -0.47806 
2.500 388.0 67.191 28.576 124.372 -0.69342 -0.47429 
2.525 388.0 67.756 28.333 124.547 -0.68815 -0.47378 
2.550 388.0 66.522 28.187 124.726 -0.68437 -0.47433 
2.575 388.0 71.043 28.057 124.841 -0.68134 -0.47427 
2.600 388.0 66.569 27.976 125.019 -0.67856 -0.47547 
2.625 381.0 69.411 27.926 125.096 -0.67712 -0.47582 
2.650 381.0 71.942 27.905 125.181 -0.67608 -0.47659 
2.675 381.0 63.254 27.875 125.125 -0.67607 -0.47558 
2.700 390.0 68.892 27.849 125.138 -0.67555 -0.47545 
2.725 390.0 64.747 27.814 125.154 -0.67484 -0.47524 
2.750 390.0 68.258 27.796 125.105 -0.67497 -0.47446 
2.775 398.0 69.412 27.795 125.010 -0.67574 -0.47333 
2.800 398.0 68.064 27.764 124.888 -0.67623 -0.47154 
2.825 398.0 67.206 27.732 124.705 -0.67721 -0.46902 
2.850 398.0 64.137 27.717 124.585 -0.67795 -0.46742 
2.875 398.0 62.610 27.667 124.390 -0.67871 -0.46455 
2.900 398.0 61.892 27.647 124.250 -0.67952 -0.46266 
2.925 398.0 60.419 27.585 124.056 -0.68007 -0.45968 
2.950 398.0 60.511 27.559 123.878 -0.68106 -0.45728 
2.975 408.0 68.281 27.501 123.761 -0.68104 -0.45524 
3.000 408.0 66.743 27.448 123.570 -0.68166 -0.45237 
3.025 408.0 64.216 27.373 123.443 -0.68140 -0.45003 
3.050 408.0 61.406 27.336 123.241 -0.68235 -0.44722 
3.075 408.0 58.999 27.278 123.104 -0.68245 -0.44495 
3.100 408.0 75.077 27.223 122.918 -0.68295 -0.44212 
3.125 408.0 72.793 27.163 122.771 -0.68306 -0.43972 
3.150 408.0 68.817 27.067 122.631 -0.68247 -0.43698 
3.175 408.0 64.757 26.980 122.455 -0.68231 -0.43392 
3.200 408.0 61.345 26.826 122.339 -0.68051 -0.43084 
3.225 416.0 67.489 26.752 122.244 -0.67992 -0.42890 
3.250 416.0 64.461 26.598 122.274 -0.67699 -0.42754 
3.275 416.0 60.323 26.469 122.288 -0.67460 -0.42626 
3.300 428.0 68.703 26.357 122.340 -0.67221 -0.42561 
3.325 428.0 62.214 26.188 122.521 -0.66783 -0.42580 
3.350 438.0 68.788 26.107 122.874 -0.66375 -0.42897 
3.375 438.0 68.389 26.034 123.239 -0.65970 -0.43234 
3.400 438.0 67.520 25.976 123.591 -0.65599 -0.43568 
3.425 438.0 65.920 25.961 124.014 -0.65249 -0.44035 
3.450 438.0 63.395 26.041 124.384 -0.65105 -0.44552 
3.475 438.0 60.700 26.079 124.601 -0.65002 -0.44844 
3.500 449.0 69.289 26.204 124.870 -0.65011 -0.45302 
3.525 449.0 66.104 26.296 125.173 -0.64929 -0.45757 
3.550 449.0 63.319 26.382 125.388 -0.64906 -0.46106 
3.575 449.0 60.759 26.486 125.549 -0.64954 -0.46415 
3.600 459.0 69.140 26.572 125.828 -0.64875 -0.46837 
3.625 459.0 66.898 26.708 126.062 -0.64911 -0.47268 
3.650 459.0 65.330 26.816 126.336 -0.64865 -0.47712 
3.675 459.0 64.184 27.019 126.498 -0.65067 -0.48143 
3.700 459.0 62.807 27.162 126.632 -0.65188 -0.48469 
3.725 459.0 61.637 27.387 126.756 -0.65447 -0.48883 
3.750 459.0 60.109 27.563 126.911 -0.65599 -0.49272 
3.775 459.0 58.215 27.836 126.961 -0.65986 -0.49654 
3.800 472.0 68.301 28.072 127.042 -0.66285 -0.50026 
3.825 472.0 64.464 28.341 127.020 -0.66719 -0.50314 
3.850 472.0 60.796 28.582 126.958 -0.67141 -0.50517 
3.875 485.0 69.084 28.840 126.865 -0.67610 -0.50698 
3.900 485.0 63.227 29.134 126.754 -0.68145 -0.50893 
3.925 485.0 58.770 29.420 126.570 -0.68726 -0.50985 
3.950 498.0 67.619 29.778 126.354 -0.69433 -0.51104 
3.975 498.0 63.814 30.022 126.108 -0.69997 -0.51058 
4.000 498.0 60.552 30.350 125.800 -0.70730 -0.51013 
4.025 509.0 67.305 30.684 125.509 -0.71448 -0.50981 
4.050 509.0 64.427 30.940 125.084 -0.72171 -0.50693 
4.075 509.0 61.713 31.317 124.647 -0.73060 -0.50489 
4.100 520.0 69.049 31.686 124.202 -0.73934 -0.50249 
4.125 520.0 65.624 31.901 123.727 -0.74625 -0.49820 
4.150 520.0 63.098 32.250 123.107 -0.75606 -0.49300 
4.175 520.0 61.540 32.518 122.488 -0.76469 -0.48694 
4.200 520.0 61.042 32.932 121.727 -0.77621 -0.47989 
4.225 520.0 60.529 33.212 120.970 -0.78587 -0.47164 
4.250 520.0 59.723 33.582 119.856 -0.79930 -0.45881 
4.275 531.0 68.667 33.939 118.783 -0.81193 -0.44604 
4.300 531.0 60.425 34.152 116.928 -0.82841 -0.42079 
4.325 531.0 66.400 34.364 115.849 -0.83863 -0.40629 
4.350 531.0 72.404 34.444 114.466 -0.84911 -0.38635 
4.375 531.0 78.650 34.452 113.241 -0.85728 -0.36815 
4.400 517.0 68.984 34.351 112.223 -0.86249 -0.35239 
4.425 517.0 73.163 34.213 111.315 -0.86633 -0.33803 
4.450 517.0 76.382 34.089 110.263 -0.87090 -0.32151 
4.475 508.0 69.991 33.954 109.272 -0.87466 -0.30582 
4.500 508.0 72.129 33.775 108.562 -0.87613 -0.29420 
4.525 508.0 73.967 33.583 107.915 -0.87694 -0.28350 
4.550 508.0 75.387 33.496 107.208 -0.87925 -0.27230 
4.575 508.0 75.784 33.359 106.623 -0.88018 -0.26277 
4.600 508.0 75.641 33.183 106.037 -0.88047 -0.25308 
4.625 508.0 75.059 33.036 105.470 -0.88095 -0.24381 
4.650 508.0 74.340 32.942 105.124 -0.88110 -0.23814 
4.675 508.0 72.984 32.892 104.659 -0.88231 -0.23080 
4.700 508.0 71.384 32.757 104.307 -0.88184 -0.22489 
4.725 508.0 69.744 32.647 103.660 -0.88277 -0.21455 
4.750 508.0 68.519 32.547 103.210 -0.88299 -0.20727 
4.775 508.0 65.163 32.431 102.829 -0.88269 -0.20101 
4.800 508.0 63.471 32.437 102.367 -0.88436 -0.19391 
4.825 508.0 60.856 32.321 101.846 -0.88440 -0.18550 
4.850 508.0 59.274 32.163 101.407 -0.88347 -0.17825 
4.875 521.0 68.126 32.214 101.081 -0.88523 -0.17337 
4.900 521.0 66.254 32.091 100.534 -0.88500 -0.16457 
4.925 521.0 64.195 31.995 100.264 -0.88433 -0.16013 
4.950 521.0 61.402 31.892 99.587 -0.88461 -0.14941 
4.975 531.0 68.181 31.834 99.311 -0.88444 -0.14500 
5.000 531.0 65.414 31.820 98.810 -0.88545 -0.13723 
5.025 531.0 62.669 31.748 98.590 -0.88486 -0.13367 
5.050 531.0 59.275 31.615 98.175 -0.88375 -0.12696 
5.075 545.0 68.399 31.518 97.809 -0.88303 -0.12110 
5.100 545.0 64.324 31.432 97.341 -0.88263 -0.11370 
5.125 545.0 60.964 31.340 97.134 -0.88158 -0.11034 
5.150 559.0 69.302 31.284 96.645 -0.88160 -0.10271 
5.175 559.0 64.900 31.217 96.293 -0.88114 -0.09716 
5.200 559.0 60.823 31.105 95.854 -0.88005 -0.09023 
5.225 572.0 67.361 31.113 95.413 -0.88084 -0.08347 
5.250 572.0 62.727 31.002 94.954 -0.87969 -0.07625 
5.275 586.0 70.652 31.010 94.765 -0.88005 -0.07336 
5.300 586.0 66.425 30.910 94.390 -0.87888 -0.06748 
5.325 586.0 61.697 30.829 94.107 -0.87787 -0.06303 
5.350 599.0 68.581 30.738 93.614 -0.87686 -0.05538 
5.375 599.0 63.795 30.595 93.252 -0.87481 -0.04970 
5.400 599.0 60.648 30.449 92.865 -0.87266 -0.04367 
5.425 614.0 67.583 30.415 92.466 -0.87236 -0.03757 
5.450 614.0 62.862 30.351 92.458 -0.87129 -0.03740 
5.475 628.0 69.930 30.208 91.978 -0.86911 -0.03001 
5.500 628.0 64.561 30.184 91.872 -0.86876 -0.02839 
5.525 640.0 69.235 30.142 91.253 -0.86828 -0.01899 
5.550 640.0 63.802 30.036 90.764 -0.86657 -0.01156 
5.575 652.0 68.259 29.905 90.578 -0.86432 -0.00871 
5.600 652.0 62.954 29.724 90.288 -0.86116 -0.00433 
5.625 666.0 67.249 29.712 90.034 -0.86096 -0.00051 
5.650 666.0 60.931 29.620 89.761 -0.85931 0.00358 
5.675 682.0 66.927 29.599 89.316 -0.85887 0.01025 
5.700 682.0 60.724 29.412 89.159 -0.85548 0.01256 
5.725 703.0 69.445 29.283 88.910 -0.85309 0.01623 
5.750 703.0 63.243 29.338 88.587 -0.85398 0.02107 
5.775 717.0 65.349 29.167 88.265 -0.85073 0.02578 
5.800 717.0 58.677 29.032 88.143 -0.84819 0.02749 
5.825 742.0 67.895 28.927 87.904 -0.84613 0.03097 
5.850 742.0 60.935 28.839 87.527 -0.84427 0.03647 
5.875 758.0 63.984 28.789 86.959 -0.84293 0.04478 
5.900 773.0 65.870 28.608 86.672 -0.83930 0.04881 
5.925 780.0 62.359 28.757 87.202 -0.84251 0.04117 
5.950 780.0 55.290 28.355 86.569 -0.83441 0.05002 
5.975 780.0 49.109 28.217 87.057 -0.83214 0.04279 
6.000 780.0 43.801 28.225 86.427 -0.83177 0.05194 
6.025 780.0 38.626 28.067 85.964 -0.82828 0.05845 
6.050 780.0 34.263 27.893 86.656 -0.82553 0.04824 
6.075 780.0 31.024 27.756 86.179 -0.82241 0.05493 
6.100 780.0 27.940 27.687 85.685 -0.82055 0.06192 
6.125 780.0 24.625 27.662 86.537 -0.82087 0.04968 
6.150 780.0 22.449 27.860 85.164 -0.82336 0.06966 
6.175 780.0 20.144 27.866 85.131 -0.82343 0.07015 
6.200 780.0 18.299 27.867 85.719 -0.82413 0.06169 
6.225 780.0 16.607 27.703 85.631 -0.82081 0.06271 
6.250 780.0 15.037 27.271 85.614 -0.81216 0.06229 
6.275 780.0 13.675 27.560 86.192 -0.81854 0.05449 
6.300 780.0 12.304 27.683 84.170 -0.81854 0.08358 
6.325 780.0 11.017 27.721 86.142 -0.82168 0.05541 
6.350 780.0 9.773 27.633 86.162 -0.81997 0.05502 
6.375 780.0 8.726 27.809 86.214 -0.82350 0.05449 
6.400 780.0 7.694 27.326 85.963 -0.81362 0.05743 
6.425 780.0 6.874 27.498 85.552 -0.81665 0.06353 
6.450 780.0 6.103 28.769 87.824 -0.84314 0.03203 
6.475 780.0 5.356 27.828 86.493 -0.82411 0.05051 
6.500 780.0 4.713 28.856 88.128 -0.84493 0.02762 

# MINIMA:
0.600 367.0 0.000 0.000 0.000 -0.88545 -0.91803 

# MAXIMA:
6.500 3600.5 80.035 39.423 159.342 0.00000 0.08358 

# PEAKS:

# END SPECTRUM


# SPECTRUM:
4

# START TIME:
14:58:12

# END TIME:
15:08:48

# THETA ANGLE:
0.00 ø

# INCIDENCE ANGLE:
70.00 ø

# ACCUMULATION NUMBER:
1

# ELLIPSOMETRIC CONFIGURATION:
+90.00 øModulator
-45.00 øAnalyser

# INTEGRATION TIME:
500 ms

# FIRST POINT:
0.6000 eV

# LAST POINT:
6.5000 eV

# INCREMENT:
0.0250 eV

# NUMBER OF POINTS:
237

# DATA:
eV Hv S0 Psi Delta Is Ic 
0.600 3397.3 61.845 37.632 152.477 -0.44691 -0.85765 
0.625 2800.4 79.241 37.382 151.631 -0.45844 -0.84898 
0.650 2298.7 78.701 37.185 151.046 -0.46621 -0.84265 
0.675 2101.9 77.716 36.999 150.234 -0.47722 -0.83443 
0.700 1600.2 75.774 36.774 149.210 -0.49094 -0.82388 
0.725 1403.4 75.608 36.652 148.447 -0.50122 -0.81623 
0.750 1301.8 70.234 36.486 147.753 -0.51018 -0.80868 
0.775 1200.2 75.605 36.374 147.051 -0.51942 -0.80140 
0.800 800.1 74.480 36.177 146.184 -0.53034 -0.79173 
0.825 997.0 64.168 35.964 145.491 -0.53859 -0.78339 
0.850 997.0 62.832 35.832 144.780 -0.54744 -0.77547 
0.875 698.5 64.688 35.775 144.016 -0.55736 -0.76758 
0.900 800.1 64.664 35.572 143.141 -0.56766 -0.75717 
0.925 901.7 63.015 35.531 142.820 -0.57161 -0.75361 
0.950 1003.3 70.377 35.358 141.845 -0.58313 -0.74222 
0.975 704.9 67.937 35.179 141.015 -0.59252 -0.73208 
1.000 1003.3 72.173 35.044 140.388 -0.59946 -0.72433 
1.025 1003.3 76.843 34.977 139.746 -0.60703 -0.71695 
1.050 603.3 65.862 34.888 138.989 -0.61575 -0.70806 
1.075 1003.3 76.625 34.682 138.299 -0.62255 -0.69872 
1.100 901.7 67.423 34.579 137.514 -0.63122 -0.68918 
1.125 901.7 69.178 34.538 136.877 -0.63849 -0.68176 
1.150 800.1 64.824 34.336 136.065 -0.64632 -0.67081 
1.175 800.1 70.142 34.200 135.410 -0.65274 -0.66213 
1.200 901.7 71.822 34.090 134.639 -0.66056 -0.65230 
1.225 603.3 61.703 33.963 134.102 -0.66547 -0.64492 
1.250 419.1 61.932 33.762 133.273 -0.67279 -0.63341 
1.275 717.6 70.224 33.661 132.729 -0.67778 -0.62607 
1.300 717.6 77.663 33.552 132.007 -0.68452 -0.61650 
1.325 819.2 65.893 33.397 131.430 -0.68910 -0.60817 
1.350 520.7 69.271 33.218 130.780 -0.69409 -0.59869 
1.375 920.8 77.107 33.105 130.144 -0.69948 -0.58993 
1.400 622.3 64.804 33.012 129.501 -0.70504 -0.58120 
1.425 1422.4 70.665 32.896 128.919 -0.70962 -0.57298 
1.450 2419.4 62.894 32.902 128.324 -0.71560 -0.56563 
1.475 780.0 0.000 0.000 0.000 0.00000 0.00000 
1.500 480.0 61.757 32.361 126.936 -0.72277 -0.54339 
1.525 580.0 72.049 32.247 126.418 -0.72628 -0.53581 
1.550 527.0 72.307 32.079 125.962 -0.72846 -0.52853 
1.575 565.0 66.348 31.985 125.276 -0.73357 -0.51894 
1.600 565.0 75.355 31.860 124.626 -0.73782 -0.50949 
1.625 518.0 71.117 31.728 124.129 -0.74051 -0.50192 
1.650 518.0 65.136 31.573 123.648 -0.74269 -0.49434 
1.675 518.0 78.277 31.510 123.082 -0.74670 -0.48644 
1.700 500.0 69.875 31.361 122.413 -0.75033 -0.47641 
1.725 490.0 70.514 31.256 121.926 -0.75292 -0.46913 
1.750 479.0 67.882 31.122 121.330 -0.75590 -0.46015 
1.775 479.0 79.230 31.046 120.873 -0.75849 -0.45345 
1.800 457.0 71.037 30.874 120.274 -0.76074 -0.44408 
1.825 457.0 76.979 30.805 119.829 -0.76318 -0.43759 
1.850 444.0 69.676 30.629 119.223 -0.76521 -0.42806 
1.875 444.0 76.377 30.534 118.771 -0.76715 -0.42123 
1.900 432.0 71.329 30.402 118.221 -0.76919 -0.41280 
1.925 432.0 78.194 30.340 117.755 -0.77158 -0.40603 
1.950 420.0 70.340 30.189 117.254 -0.77281 -0.39808 
1.975 420.0 77.895 30.102 116.840 -0.77431 -0.39181 
2.000 410.0 69.999 30.029 116.285 -0.77693 -0.38373 
2.025 410.0 73.332 29.892 115.800 -0.77800 -0.37610 
2.050 410.0 72.692 29.813 115.304 -0.77997 -0.36876 
2.075 398.0 70.822 29.673 114.824 -0.78078 -0.36116 
2.100 398.0 75.145 29.617 114.323 -0.78299 -0.35392 
2.125 391.0 69.113 29.502 113.789 -0.78438 -0.34577 
2.150 391.0 71.737 29.441 113.285 -0.78638 -0.33842 
2.175 391.0 74.676 29.369 112.798 -0.78802 -0.33122 
2.200 391.0 76.721 29.262 112.281 -0.78918 -0.32336 
2.225 384.0 69.653 29.175 111.729 -0.79078 -0.31515 
2.250 384.0 71.814 29.037 111.167 -0.79147 -0.30647 
2.275 384.0 73.627 29.006 110.625 -0.79380 -0.29876 
2.300 384.0 75.020 28.807 110.071 -0.79318 -0.28980 
2.325 384.0 76.533 28.686 109.454 -0.79411 -0.28049 
2.350 384.0 77.578 28.543 108.865 -0.79440 -0.27144 
2.375 384.0 78.941 28.360 108.293 -0.79375 -0.26239 
2.400 377.0 70.474 28.144 107.677 -0.79256 -0.25258 
2.425 377.0 73.208 27.842 107.150 -0.78921 -0.24355 
2.450 368.0 70.107 27.597 106.681 -0.78653 -0.23568 
2.475 368.0 70.470 27.252 106.436 -0.78088 -0.23036 
2.500 378.0 67.960 26.837 106.291 -0.77332 -0.22600 
2.525 378.0 68.926 26.572 106.267 -0.76811 -0.22414 
2.550 378.0 67.459 26.368 106.361 -0.76363 -0.22419 
2.575 378.0 71.890 26.230 106.486 -0.76033 -0.22502 
2.600 378.0 66.922 26.110 106.589 -0.75747 -0.22565 
2.625 371.0 69.579 26.054 106.753 -0.75567 -0.22748 
2.650 371.0 72.298 26.008 106.791 -0.75457 -0.22769 
2.675 371.0 63.016 25.981 106.684 -0.75444 -0.22612 
2.700 380.0 68.886 25.956 106.649 -0.75407 -0.22550 
2.725 380.0 64.567 25.924 106.573 -0.75371 -0.22431 
2.750 380.0 67.153 25.930 106.531 -0.75400 -0.22378 
2.775 388.0 68.648 25.909 106.399 -0.75407 -0.22192 
2.800 388.0 67.302 25.905 106.199 -0.75476 -0.21926 
2.825 388.0 66.996 25.869 106.030 -0.75465 -0.21682 
2.850 388.0 63.379 25.872 105.811 -0.75555 -0.21396 
2.875 388.0 61.391 25.837 105.537 -0.75582 -0.21013 
2.900 388.0 60.241 25.810 105.378 -0.75584 -0.20787 
2.925 388.0 59.018 25.791 105.144 -0.75628 -0.20468 
2.950 397.0 69.916 25.775 104.959 -0.75662 -0.20216 
2.975 397.0 66.176 25.764 104.686 -0.75734 -0.19848 
3.000 397.0 64.206 25.678 104.479 -0.75623 -0.19528 
3.025 397.0 61.733 25.644 104.202 -0.75645 -0.19144 
3.050 406.0 69.527 25.607 104.024 -0.75625 -0.18889 
3.075 406.0 66.839 25.562 103.752 -0.75618 -0.18506 
3.100 396.0 70.059 25.516 103.543 -0.75589 -0.18207 
3.125 396.0 67.953 25.453 103.268 -0.75539 -0.17812 
3.150 396.0 64.325 25.375 102.931 -0.75474 -0.17329 
3.175 396.0 60.351 25.281 102.716 -0.75338 -0.17001 
3.200 406.0 68.623 25.201 102.590 -0.75201 -0.16796 
3.225 406.0 65.203 25.072 102.315 -0.75000 -0.16373 
3.250 406.0 61.619 24.943 102.081 -0.74783 -0.16006 
3.275 416.0 69.062 24.804 102.080 -0.74477 -0.15939 
3.300 416.0 63.824 24.629 101.941 -0.74127 -0.15676 
3.325 425.0 66.815 24.495 101.995 -0.73811 -0.15682 
3.350 425.0 62.305 24.318 102.134 -0.73375 -0.15776 
3.375 425.0 61.890 24.225 102.386 -0.73096 -0.16052 
3.400 425.0 61.277 24.105 102.740 -0.72724 -0.16442 
3.425 425.0 59.445 24.063 103.139 -0.72513 -0.16926 
3.450 436.0 69.287 24.042 103.535 -0.72346 -0.17415 
3.475 436.0 65.946 24.083 103.823 -0.72350 -0.17802 
3.500 436.0 62.760 24.086 104.093 -0.72272 -0.18143 
3.525 436.0 59.715 24.132 104.364 -0.72288 -0.18513 
3.550 446.0 67.216 24.174 104.542 -0.72327 -0.18761 
3.575 446.0 64.318 24.218 104.864 -0.72317 -0.19194 
3.600 446.0 61.926 24.260 105.162 -0.72312 -0.19595 
3.625 446.0 60.078 24.327 105.448 -0.72362 -0.19997 
3.650 456.0 68.242 24.430 105.851 -0.72448 -0.20570 
3.675 456.0 67.327 24.524 106.102 -0.72564 -0.20947 
3.700 456.0 65.514 24.661 106.472 -0.72725 -0.21504 
3.725 456.0 64.144 24.797 106.734 -0.72923 -0.21925 
3.750 456.0 62.370 24.980 106.897 -0.73255 -0.22252 
3.775 456.0 59.831 25.139 107.293 -0.73439 -0.22863 
3.800 469.0 70.596 25.408 107.498 -0.73925 -0.23306 
3.825 469.0 66.427 25.577 107.688 -0.74202 -0.23663 
3.850 469.0 62.019 25.825 107.814 -0.74664 -0.23992 
3.875 478.0 65.539 26.059 107.951 -0.75085 -0.24326 
3.900 478.0 60.214 26.346 108.070 -0.75616 -0.24672 
3.925 492.0 69.442 26.644 108.141 -0.76181 -0.24960 
3.950 492.0 64.496 26.914 108.146 -0.76709 -0.25141 
3.975 492.0 60.856 27.209 108.159 -0.77278 -0.25347 
4.000 503.0 67.387 27.528 108.101 -0.77914 -0.25467 
4.025 503.0 63.655 27.890 107.996 -0.78644 -0.25547 
4.050 503.0 60.690 28.169 107.803 -0.79246 -0.25448 
4.075 514.0 67.517 28.550 107.615 -0.80024 -0.25408 
4.100 514.0 64.039 28.877 107.435 -0.80690 -0.25341 
4.125 514.0 60.863 29.308 107.229 -0.81539 -0.25287 
4.150 526.0 69.562 29.659 106.911 -0.82283 -0.25017 
4.175 526.0 67.424 30.113 106.476 -0.83236 -0.24618 
4.200 526.0 66.796 30.473 106.131 -0.83975 -0.24287 
4.225 526.0 65.736 31.024 105.533 -0.85108 -0.23655 
4.250 526.0 64.616 31.436 104.756 -0.86064 -0.22668 
4.275 526.0 63.738 31.929 103.884 -0.87148 -0.21542 
4.300 526.0 63.484 32.348 102.426 -0.88287 -0.19453 
4.325 526.0 69.451 32.808 101.238 -0.89334 -0.17750 
4.350 526.0 76.032 33.099 99.988 -0.90108 -0.15870 
4.375 516.0 71.507 33.359 98.598 -0.90824 -0.13733 
4.400 516.0 76.586 33.374 97.401 -0.91113 -0.11836 
4.425 506.0 70.265 33.379 96.147 -0.91356 -0.09838 
4.450 506.0 73.808 33.457 94.781 -0.91671 -0.07668 
4.475 506.0 77.285 33.487 93.675 -0.91843 -0.05898 
4.500 496.0 68.943 33.332 92.573 -0.91727 -0.04122 
4.525 496.0 71.426 33.229 91.813 -0.91631 -0.02900 
4.550 496.0 73.145 33.143 90.851 -0.91547 -0.01360 
4.575 496.0 74.395 33.020 90.178 -0.91383 -0.00284 
4.600 496.0 75.402 32.874 89.346 -0.91169 0.01040 
4.625 496.0 74.384 32.745 88.728 -0.90966 0.02021 
4.650 496.0 75.362 32.635 88.230 -0.90785 0.02805 
4.675 496.0 73.026 32.612 87.723 -0.90724 0.03607 
4.700 496.0 72.186 32.521 87.181 -0.90553 0.04460 
4.725 496.0 70.777 32.357 86.746 -0.90273 0.05132 
4.750 496.0 67.703 32.292 86.091 -0.90111 0.06157 
4.775 496.0 66.815 32.307 85.574 -0.90075 0.06972 
4.800 496.0 63.778 32.218 85.129 -0.89885 0.07659 
4.825 496.0 62.156 32.157 84.664 -0.89727 0.08381 
4.850 496.0 59.239 32.061 84.125 -0.89500 0.09209 
4.875 509.0 70.133 32.201 83.579 -0.89619 0.10086 
4.900 509.0 66.744 32.085 83.196 -0.89375 0.10663 
4.925 509.0 64.317 32.006 82.882 -0.89196 0.11138 
4.950 509.0 62.530 31.858 82.472 -0.88888 0.11746 
4.975 509.0 59.785 31.928 81.863 -0.88865 0.12705 
5.000 522.0 69.173 31.870 81.540 -0.88703 0.13194 
5.025 522.0 66.172 31.826 81.087 -0.88529 0.13884 
5.050 522.0 62.641 31.712 80.616 -0.88237 0.14582 
5.075 522.0 60.365 31.640 80.479 -0.88091 0.14775 
5.100 535.0 68.603 31.600 80.039 -0.87913 0.15440 
5.125 535.0 64.359 31.590 79.514 -0.87753 0.16242 
5.150 535.0 60.107 31.487 79.135 -0.87482 0.16791 
5.175 548.0 66.746 31.537 78.584 -0.87396 0.17647 
5.200 548.0 62.093 31.539 78.189 -0.87275 0.18250 
5.225 560.0 69.087 31.373 78.103 -0.86989 0.18327 
5.250 560.0 64.502 31.518 77.372 -0.86973 0.19485 
5.275 560.0 60.172 31.387 77.081 -0.86671 0.19881 
5.300 575.0 69.194 31.375 76.867 -0.86576 0.20200 
5.325 575.0 64.477 31.309 76.444 -0.86322 0.20814 
5.350 575.0 60.595 31.269 75.976 -0.86088 0.21503 
5.375 591.0 68.984 31.079 75.519 -0.85614 0.22111 
5.400 591.0 64.580 31.033 75.295 -0.85454 0.22427 
5.425 591.0 60.827 31.046 74.834 -0.85292 0.23119 
5.450 606.0 68.679 30.993 74.556 -0.85095 0.23509 
5.475 606.0 63.519 30.937 74.111 -0.84822 0.24144 
5.500 606.0 59.154 30.823 73.773 -0.84497 0.24592 
5.525 625.0 68.685 30.809 73.425 -0.84324 0.25097 
5.550 625.0 63.236 30.801 73.247 -0.84233 0.25356 
5.575 638.0 67.867 30.592 72.994 -0.83785 0.25626 
5.600 638.0 63.106 30.748 72.295 -0.83716 0.26725 
5.625 652.0 67.394 30.461 72.221 -0.83222 0.26687 
5.650 664.0 70.603 30.612 71.582 -0.83161 0.27693 
5.675 664.0 64.789 30.507 71.415 -0.82912 0.27879 
5.700 678.0 69.353 30.330 71.416 -0.82627 0.27782 
5.725 678.0 62.686 30.244 71.408 -0.82484 0.27747 
5.750 695.0 68.881 30.132 70.554 -0.81878 0.28908 
5.775 695.0 61.707 30.023 70.729 -0.81788 0.28595 
5.800 715.0 69.044 30.164 70.068 -0.81682 0.29621 
5.825 729.0 70.495 30.020 69.606 -0.81207 0.30191 
5.850 729.0 63.680 29.971 69.458 -0.81049 0.30371 
5.875 743.0 64.661 29.766 69.118 -0.80529 0.30722 
5.900 758.0 66.344 29.794 68.615 -0.80303 0.31447 
5.925 777.0 70.133 29.848 68.204 -0.80164 0.32057 
5.950 777.0 62.678 29.397 68.933 -0.79814 0.30744 
5.975 780.0 56.668 29.387 68.318 -0.79463 0.31594 
6.000 780.0 50.498 29.450 68.135 -0.79467 0.31888 
6.025 780.0 44.569 29.216 67.137 -0.78508 0.33103 
6.050 780.0 39.980 29.210 68.611 -0.79323 0.31068 
6.075 780.0 35.683 28.864 68.151 -0.78479 0.31467 
6.100 780.0 32.024 29.108 67.496 -0.78531 0.32534 
6.125 780.0 28.398 28.960 67.839 -0.78471 0.31961 
6.150 780.0 25.643 28.892 67.176 -0.77980 0.32819 
6.175 780.0 23.544 28.539 67.246 -0.77409 0.32467 
6.200 780.0 20.901 28.613 66.969 -0.77380 0.32895 
6.225 780.0 18.848 28.471 67.831 -0.77616 0.31625 
6.250 780.0 17.058 28.605 67.699 -0.77778 0.31900 
6.275 780.0 15.739 28.583 67.163 -0.77438 0.32611 
6.300 780.0 13.966 28.216 67.483 -0.76971 0.31910 
6.325 780.0 12.666 28.354 66.728 -0.76787 0.33025 
6.350 780.0 11.185 28.216 67.833 -0.77165 0.31439 
6.375 780.0 9.947 28.225 68.454 -0.77517 0.30607 
6.400 780.0 8.741 28.256 68.009 -0.77332 0.31231 
6.425 780.0 8.025 27.818 68.163 -0.76624 0.30704 
6.450 780.0 7.032 28.634 67.954 -0.77969 0.31575 
6.475 780.0 6.183 27.624 70.687 -0.77540 0.27174 
6.500 780.0 5.399 28.602 70.333 -0.79156 0.28291 

# MINIMA:
0.600 368.0 0.000 0.000 0.000 -0.91843 -0.85765 

# MAXIMA:
6.500 3397.3 79.241 37.632 152.477 0.00000 0.33103 

# PEAKS:

# END SPECTRUM


# SPECTRUM:
5

# START TIME:
15:09:36

# END TIME:
15:20:13

# THETA ANGLE:
0.00 ø

# INCIDENCE ANGLE:
75.00 ø

# ACCUMULATION NUMBER:
1

# ELLIPSOMETRIC CONFIGURATION:
+90.00 øModulator
-45.00 øAnalyser

# INTEGRATION TIME:
500 ms

# FIRST POINT:
0.6000 eV

# LAST POINT:
6.5000 eV

# INCREMENT:
0.0250 eV

# NUMBER OF POINTS:
237

# DATA:
eV Hv S0 Psi Delta Is Ic 
0.600 2997.2 62.089 35.247 141.824 -0.58261 -0.74100 
0.625 2400.3 78.455 34.909 140.511 -0.59688 -0.72436 
0.650 2000.3 79.742 34.684 139.752 -0.60466 -0.71430 
0.675 1803.4 76.876 34.434 138.623 -0.61656 -0.69992 
0.700 1403.4 71.624 34.324 137.378 -0.63068 -0.68533 
0.725 1301.8 77.411 34.143 136.083 -0.64439 -0.66923 
0.750 1200.2 71.072 33.950 135.174 -0.65316 -0.65715 
0.775 1098.6 76.159 33.808 134.265 -0.66217 -0.64539 
0.800 698.5 69.669 33.689 133.154 -0.67339 -0.63134 
0.825 895.4 63.255 33.519 132.483 -0.67904 -0.62185 
0.850 895.4 62.410 33.361 131.365 -0.68942 -0.60706 
0.875 616.0 62.033 33.209 130.255 -0.69944 -0.59223 
0.900 717.6 64.132 33.124 129.486 -0.70642 -0.58203 
0.925 819.2 64.502 33.000 128.552 -0.71443 -0.56934 
0.950 920.8 73.313 32.899 127.538 -0.72326 -0.55573 
0.975 622.3 63.356 32.842 126.446 -0.73306 -0.54136 
1.000 920.8 74.501 32.648 125.686 -0.73788 -0.52995 
1.025 920.8 78.836 32.531 124.597 -0.74642 -0.51487 
1.050 533.4 60.542 32.427 123.679 -0.75328 -0.50199 
1.075 831.9 61.288 32.300 122.655 -0.76056 -0.48742 
1.100 831.9 68.039 32.247 121.684 -0.76803 -0.47404 
1.125 831.9 68.295 32.120 120.600 -0.77520 -0.45846 
1.150 730.3 62.841 32.011 119.856 -0.77966 -0.44753 
1.175 730.3 67.216 31.964 119.073 -0.78506 -0.43648 
1.200 831.9 69.621 31.848 117.988 -0.79161 -0.42069 
1.225 635.0 79.726 31.714 117.187 -0.79556 -0.40863 
1.250 400.1 63.405 31.546 116.324 -0.79927 -0.39544 
1.275 698.5 71.334 31.443 115.358 -0.80434 -0.38120 
1.300 698.5 78.355 31.327 114.621 -0.80749 -0.37006 
1.325 800.1 65.248 31.240 113.914 -0.81073 -0.35949 
1.350 501.7 70.015 31.074 113.040 -0.81363 -0.34603 
1.375 901.7 75.162 31.003 112.208 -0.81749 -0.33375 
1.400 603.3 65.006 30.894 111.492 -0.81993 -0.32285 
1.425 1403.4 67.043 30.892 110.624 -0.82469 -0.31038 
1.450 2501.9 62.491 30.870 109.912 -0.82815 -0.29998 
1.475 780.0 0.000 0.000 0.000 0.00000 0.00000 
1.500 462.0 58.213 30.452 108.182 -0.83017 -0.27266 
1.525 566.0 73.746 30.384 107.510 -0.83221 -0.26256 
1.550 513.0 72.308 30.229 106.754 -0.83307 -0.25078 
1.575 550.0 67.022 30.097 105.902 -0.83451 -0.23775 
1.600 550.0 76.357 30.056 105.209 -0.83663 -0.22745 
1.625 505.0 72.321 29.985 104.487 -0.83824 -0.21658 
1.650 505.0 66.723 29.898 103.853 -0.83910 -0.20692 
1.675 494.0 68.202 29.870 103.166 -0.84104 -0.19674 
1.700 494.0 78.965 29.774 102.582 -0.84136 -0.18778 
1.725 475.0 68.694 29.632 101.941 -0.84093 -0.17785 
1.750 475.0 78.451 29.593 101.118 -0.84272 -0.16562 
1.775 458.0 70.318 29.512 100.588 -0.84278 -0.15753 
1.800 443.0 69.836 29.408 99.840 -0.84292 -0.14620 
1.825 443.0 75.518 29.371 99.138 -0.84399 -0.13575 
1.850 432.0 69.923 29.244 98.576 -0.84300 -0.12713 
1.875 432.0 76.486 29.195 98.016 -0.84331 -0.11876 
1.900 420.0 70.601 29.119 97.323 -0.84332 -0.10837 
1.925 420.0 77.570 29.059 96.756 -0.84325 -0.09990 
1.950 410.0 71.080 28.980 96.151 -0.84279 -0.09083 
1.975 410.0 78.738 28.909 95.566 -0.84237 -0.08209 
2.000 399.0 69.667 28.873 94.942 -0.84254 -0.07285 
2.025 399.0 72.154 28.783 94.401 -0.84152 -0.06476 
2.050 399.0 71.549 28.762 93.783 -0.84178 -0.05565 
2.075 387.0 68.659 28.666 93.150 -0.84055 -0.04626 
2.100 387.0 72.660 28.651 92.590 -0.84067 -0.03803 
2.125 387.0 76.072 28.597 91.977 -0.84001 -0.02900 
2.150 387.0 78.546 28.561 91.378 -0.83959 -0.02020 
2.175 379.0 69.926 28.517 90.773 -0.83892 -0.01131 
2.200 379.0 71.942 28.451 90.165 -0.83773 -0.00241 
2.225 379.0 73.874 28.465 89.526 -0.83797 0.00693 
2.250 379.0 76.208 28.379 88.882 -0.83620 0.01632 
2.275 379.0 78.074 28.367 88.271 -0.83575 0.02522 
2.300 379.0 79.031 28.266 87.586 -0.83345 0.03514 
2.325 371.0 69.046 28.181 86.856 -0.83130 0.04566 
2.350 371.0 69.828 28.057 86.112 -0.82824 0.05629 
2.375 371.0 70.976 27.952 85.429 -0.82546 0.06600 
2.400 371.0 72.592 27.776 84.681 -0.82110 0.07644 
2.425 371.0 75.457 27.570 83.957 -0.81599 0.08638 
2.450 361.0 70.534 27.348 83.370 -0.81064 0.09423 
2.475 361.0 69.824 27.050 82.920 -0.80387 0.09984 
2.500 361.0 69.628 26.619 82.504 -0.79428 0.10452 
2.525 361.0 69.575 26.395 82.255 -0.78916 0.10733 
2.550 361.0 68.217 26.160 82.258 -0.78422 0.10662 
2.575 361.0 72.056 26.021 82.245 -0.78125 0.10639 
2.600 361.0 67.098 25.890 82.284 -0.77854 0.10548 
2.625 361.0 79.875 25.856 82.319 -0.77787 0.10492 
2.650 353.0 70.616 25.801 82.248 -0.77656 0.10571 
2.675 353.0 61.023 25.734 82.323 -0.77525 0.10449 
2.700 364.0 69.373 25.748 82.174 -0.77528 0.10656 
2.725 364.0 64.624 25.745 82.012 -0.77492 0.10874 
2.750 364.0 67.279 25.739 81.979 -0.77472 0.10917 
2.775 372.0 68.325 25.738 81.807 -0.77436 0.11150 
2.800 372.0 67.053 25.777 81.577 -0.77475 0.11473 
2.825 372.0 65.952 25.759 81.418 -0.77404 0.11681 
2.850 372.0 62.406 25.769 81.237 -0.77387 0.11929 
2.875 372.0 60.647 25.757 80.999 -0.77311 0.12246 
2.900 372.0 59.146 25.733 80.888 -0.77236 0.12388 
2.925 380.0 67.147 25.759 80.515 -0.77210 0.12899 
2.950 380.0 66.442 25.793 80.191 -0.77208 0.13349 
2.975 380.0 62.752 25.756 80.005 -0.77086 0.13585 
3.000 380.0 60.713 25.777 79.714 -0.77061 0.13985 
3.025 389.0 69.126 25.771 79.407 -0.76972 0.14395 
3.050 389.0 66.018 25.756 79.126 -0.76868 0.14766 
3.075 389.0 63.102 25.734 78.837 -0.76746 0.15145 
3.100 381.0 68.709 25.703 78.500 -0.76589 0.15582 
3.125 381.0 66.594 25.665 78.199 -0.76425 0.15967 
3.150 381.0 62.899 25.604 77.867 -0.76202 0.16382 
3.175 389.0 68.603 25.600 77.610 -0.76119 0.16722 
3.200 389.0 64.851 25.528 77.296 -0.75873 0.17104 
3.225 389.0 61.630 25.425 77.035 -0.75574 0.17399 
3.250 397.0 68.161 25.384 76.690 -0.75379 0.17833 
3.275 397.0 63.795 25.239 76.423 -0.74982 0.18108 
3.300 405.0 67.382 25.100 76.279 -0.74637 0.18224 
3.325 405.0 60.817 24.897 76.210 -0.74172 0.18204 
3.350 416.0 69.421 24.806 76.032 -0.73916 0.18385 
3.375 416.0 68.397 24.611 76.212 -0.73543 0.18047 
3.400 416.0 67.364 24.511 76.391 -0.73376 0.17764 
3.425 416.0 65.353 24.405 76.612 -0.73207 0.17424 
3.450 416.0 62.615 24.366 76.816 -0.73183 0.17143 
3.475 416.0 59.379 24.327 77.164 -0.73197 0.16678 
3.500 427.0 67.769 24.307 77.312 -0.73196 0.16480 
3.525 427.0 64.027 24.293 77.621 -0.73251 0.16077 
3.550 427.0 60.790 24.264 77.861 -0.73252 0.15756 
3.575 438.0 69.720 24.289 78.087 -0.73371 0.15479 
3.600 438.0 67.105 24.242 78.262 -0.73312 0.15232 
3.625 438.0 64.104 24.255 78.677 -0.73449 0.14707 
3.650 438.0 62.020 24.263 78.934 -0.73532 0.14381 
3.675 438.0 59.965 24.334 79.308 -0.73786 0.13932 
3.700 448.0 68.744 24.399 79.630 -0.74011 0.13543 
3.725 448.0 66.434 24.477 80.025 -0.74279 0.13064 
3.750 448.0 64.285 24.585 80.353 -0.74596 0.12680 
3.775 448.0 61.754 24.691 80.736 -0.74916 0.12220 
3.800 459.0 69.376 24.844 81.113 -0.75338 0.11781 
3.825 459.0 64.595 24.967 81.467 -0.75682 0.11356 
3.850 459.0 60.123 25.111 81.795 -0.76067 0.10968 
3.875 473.0 68.006 25.303 82.074 -0.76542 0.10656 
3.900 473.0 62.528 25.514 82.485 -0.77078 0.10168 
3.925 483.0 67.139 25.732 82.623 -0.77574 0.10044 
3.950 483.0 62.502 25.990 82.980 -0.78190 0.09628 
3.975 493.0 68.099 26.217 83.244 -0.78715 0.09324 
4.000 493.0 63.727 26.468 83.415 -0.79269 0.09150 
4.025 493.0 59.851 26.693 83.577 -0.79763 0.08979 
4.050 506.0 68.868 27.028 83.635 -0.80460 0.08976 
4.075 506.0 65.570 27.297 83.827 -0.81034 0.08764 
4.100 506.0 61.171 27.705 84.024 -0.81875 0.08570 
4.125 516.0 67.326 28.034 84.076 -0.82528 0.08563 
4.150 516.0 64.629 28.443 84.097 -0.83314 0.08615 
4.175 516.0 62.310 28.826 84.102 -0.84034 0.08682 
4.200 516.0 61.141 29.278 84.072 -0.84859 0.08811 
4.225 516.0 60.128 29.820 83.995 -0.85813 0.09027 
4.250 526.0 68.060 30.422 83.638 -0.86792 0.09677 
4.275 526.0 66.560 30.910 83.170 -0.87522 0.10483 
4.300 515.0 69.977 31.488 82.122 -0.88241 0.12210 
4.325 515.0 76.385 31.953 81.416 -0.88801 0.13404 
4.350 503.0 69.274 32.561 80.180 -0.89392 0.15473 
4.375 503.0 74.428 32.755 79.297 -0.89420 0.16901 
4.400 494.0 69.557 32.992 78.096 -0.89378 0.18842 
4.425 494.0 72.899 33.136 77.013 -0.89205 0.20572 
4.450 494.0 76.703 33.331 75.805 -0.89016 0.22516 
4.475 485.0 69.356 33.429 74.724 -0.88704 0.24226 
4.500 485.0 72.341 33.576 73.527 -0.88371 0.26132 
4.525 485.0 74.189 33.611 72.538 -0.87952 0.27668 
4.550 485.0 76.031 33.552 71.700 -0.87461 0.28926 
4.575 485.0 76.464 33.464 70.822 -0.86895 0.30222 
4.600 485.0 77.269 33.353 70.033 -0.86328 0.31365 
4.625 485.0 77.576 33.380 69.281 -0.85943 0.32508 
4.650 485.0 76.606 33.434 68.615 -0.85629 0.33531 
4.675 485.0 74.921 33.433 67.994 -0.85259 0.34457 
4.700 485.0 73.709 33.196 67.681 -0.84766 0.34798 
4.725 485.0 72.512 33.244 66.976 -0.84394 0.35864 
4.750 485.0 71.392 33.082 66.691 -0.84005 0.36195 
4.775 485.0 68.260 33.010 66.268 -0.83642 0.36772 
4.800 485.0 66.596 33.230 65.600 -0.83490 0.37873 
4.825 485.0 64.041 33.025 65.245 -0.82992 0.38268 
4.850 485.0 61.665 33.021 64.654 -0.82588 0.39120 
4.875 496.0 70.396 33.253 64.170 -0.82547 0.39958 
4.900 496.0 67.787 33.176 63.815 -0.82201 0.40422 
4.925 496.0 64.320 33.128 63.371 -0.81825 0.41027 
4.950 496.0 62.826 32.917 63.078 -0.81349 0.41310 
4.975 496.0 60.412 32.914 62.639 -0.81026 0.41931 
5.000 506.0 66.325 33.054 62.203 -0.80880 0.42638 
5.025 506.0 64.157 33.088 61.757 -0.80588 0.43288 
5.050 506.0 60.883 32.855 61.495 -0.80098 0.43499 
5.075 519.0 69.478 32.961 61.075 -0.79910 0.44158 
5.100 519.0 65.472 32.942 60.683 -0.79581 0.44691 
5.125 519.0 61.056 32.892 60.446 -0.79334 0.44983 
5.150 532.0 69.639 33.153 59.812 -0.79152 0.46046 
5.175 532.0 64.846 32.845 59.725 -0.78705 0.45945 
5.200 532.0 61.103 32.850 59.379 -0.78431 0.46423 
5.225 545.0 67.537 32.854 59.052 -0.78170 0.46874 
5.250 545.0 63.546 32.953 58.552 -0.77879 0.47628 
5.275 556.0 69.440 33.133 58.066 -0.77688 0.48421 
5.300 556.0 65.014 32.828 58.006 -0.77269 0.48272 
5.325 556.0 61.208 32.867 57.531 -0.76914 0.48941 
5.350 569.0 67.404 32.769 57.471 -0.76744 0.48946 
5.375 569.0 63.157 32.809 56.744 -0.76165 0.49948 
5.400 569.0 59.265 32.664 56.604 -0.75867 0.50018 
5.425 585.0 67.424 32.762 56.382 -0.75791 0.50390 
5.450 585.0 63.567 32.613 56.175 -0.75429 0.50542 
5.475 585.0 59.036 32.617 55.746 -0.75053 0.51109 
5.500 603.0 68.954 32.685 55.130 -0.74581 0.51970 
5.525 603.0 63.901 32.814 54.827 -0.74458 0.52471 
5.550 616.0 69.327 32.724 54.524 -0.74073 0.52789 
5.575 616.0 64.142 32.449 54.559 -0.73777 0.52509 
5.600 616.0 59.048 32.429 54.109 -0.73338 0.53070 
5.625 635.0 67.308 32.772 53.324 -0.73007 0.54370 
5.650 635.0 61.418 32.683 53.104 -0.72694 0.54573 
5.675 651.0 67.401 32.067 53.646 -0.72468 0.53339 
5.700 651.0 61.708 32.490 52.556 -0.71944 0.55094 
5.725 666.0 66.206 32.066 52.993 -0.71855 0.54160 
5.750 666.0 60.425 32.104 52.600 -0.71527 0.54687 
5.775 685.0 67.137 32.203 52.117 -0.71182 0.55380 
5.800 700.0 70.587 32.304 51.759 -0.70953 0.55918 
5.825 700.0 63.828 32.170 51.442 -0.70485 0.56184 
5.850 717.0 68.532 32.083 51.263 -0.70208 0.56322 
5.875 717.0 60.857 31.700 51.315 -0.69798 0.55889 
5.900 737.0 66.499 31.705 51.334 -0.69822 0.55870 
5.925 737.0 59.029 31.680 51.392 -0.69848 0.55774 
5.950 757.0 63.372 31.653 50.279 -0.68718 0.57094 
5.975 776.0 67.579 31.400 50.536 -0.68665 0.56530 
6.000 776.0 60.197 31.475 50.478 -0.68699 0.56676 
6.025 780.0 55.251 30.637 49.912 -0.67090 0.56471 
6.050 780.0 49.291 31.000 50.436 -0.68069 0.56238 
6.075 780.0 43.916 31.380 49.578 -0.67686 0.57651 
6.100 780.0 39.752 31.169 49.221 -0.67068 0.57848 
6.125 780.0 34.932 31.030 49.751 -0.67428 0.57081 
6.150 780.0 31.423 30.468 49.860 -0.66821 0.56347 
6.175 780.0 28.676 30.838 49.482 -0.66919 0.57192 
6.200 780.0 25.433 30.849 49.179 -0.66630 0.57555 
6.225 780.0 23.296 30.759 48.552 -0.65884 0.58182 
6.250 780.0 21.018 30.240 50.162 -0.66818 0.55745 
6.275 780.0 19.105 29.571 50.815 -0.66539 0.54238 
6.300 780.0 16.950 29.844 50.020 -0.66151 0.55467 
6.325 780.0 15.454 29.693 50.358 -0.66272 0.54907 
6.350 780.0 13.649 29.946 49.647 -0.65925 0.56013 
6.375 780.0 12.098 29.371 50.008 -0.65492 0.54938 
6.400 780.0 10.754 28.943 50.967 -0.65793 0.53341 
6.425 780.0 9.502 29.503 51.574 -0.67155 0.53276 
6.450 780.0 8.266 28.900 52.109 -0.66780 0.51969 
6.475 780.0 7.391 27.913 51.960 -0.65160 0.50982 
6.500 780.0 6.554 28.103 51.836 -0.65341 0.51351 

# MINIMA:
0.600 353.0 0.000 0.000 0.000 -0.89420 -0.74100 

# MAXIMA:
6.500 2997.2 79.875 35.247 141.824 0.00000 0.58182 

# PEAKS:

# END SPECTRUM

