PE UV                   SPECTRUM    ASCII       PEDS        1.60        
  -1
S19_02.SP
12/04/05
07:21:18.00
12/04/05
07:34:22.00


190.000000
1









4444

SCAN
1
1


0.0
1920.0
2.00
MANUAL



UV/VIS




































#HDR
-1
-1
#GR
NM
%R
0.00002384185791015625
0.0
1000.000000
1.000000
811
8
108.173000
25.331000
#DATA
1000.000000	58.586000  
999.000000	 58.144000  
998.000000	 58.114000  
997.000000	 58.550999  
996.000000	 58.498000  
995.000000	 58.194000  
994.000000	 57.943000  
993.000000	 58.075000  
992.000000	 57.946000  
991.000000	 57.729000  
990.000000	 57.655000  
989.000000	 58.057000  
988.000000	 58.131000  
987.000000	 57.670999  
986.000000	 57.550000  
985.000000	 57.541000  
984.000000	 57.194000  
983.000000	 57.147000  
982.000000	 56.898000  
981.000000	 56.553000  
980.000000	 56.922000  
979.000000	 57.038000  
978.000000	 56.932000  
977.000000	 57.055000  
976.000000	 56.744000  
975.000000	 56.396000  
974.000000	 56.406000  
973.000000	 56.460000  
972.000000	 56.578000  
971.000000	 56.440000  
970.000000	 56.428999  
969.000000	 56.178000  
968.000000	 56.009000  
967.000000	 55.723000  
966.000000	 56.047000  
965.000000	 55.952000  
964.000000	 55.543000  
963.000000	 55.751000  
962.000000	 55.757000  
961.000000	 56.035000  
960.000000	 55.709000  
959.000000	 55.395000  
958.000000	 55.375000  
957.000000	 54.911000  
956.000000	 54.603000  
955.000000	 55.313999  
954.000000	 54.907000  
953.000000	 54.764000  
952.000000	 55.167999  
951.000000	 54.943000  
950.000000	 54.786000  
949.000000	 54.789000  
948.000000	 54.722000  
947.000000	 54.537000  
946.000000	 54.496999  
945.000000	 54.618999  
944.000000	 54.381000  
943.000000	 54.316000  
942.000000	 54.274000  
941.000000	 54.125000  
940.000000	 54.039000  
939.000000	 53.991000  
938.000000	 53.848000  
937.000000	 53.713000  
936.000000	 53.542000  
935.000000	 53.641000  
934.000000	 53.559000  
933.000000	 53.428000  
932.000000	 53.230000  
931.000000	 53.272000  
930.000000	 53.150000  
929.000000	 53.168000  
928.000000	 53.171000  
927.000000	 53.099000  
926.000000	 53.093999  
925.000000	 52.904000  
924.000000	 52.612000  
923.000000	 52.690000  
922.000000	 52.440000  
921.000000	 52.390000  
920.000000	 52.367000  
919.000000	 52.153000  
918.000000	 52.103000  
917.000000	 52.158000  
916.000000	 52.125000  
915.000000	 51.736000  
914.000000	 51.546000  
913.000000	 51.678000  
912.000000	 51.455000  
911.000000	 51.526000  
910.000000	 51.809000  
909.000000	 51.590000  
908.000000	 51.418000  
907.000000	 51.249000  
906.000000	 51.620000  
905.000000	 51.528000  
904.000000	 50.860000  
903.000000	 50.321000  
902.000000	 50.557000  
901.000000	 50.511000  
900.000000	 50.556000  
899.000000	 50.565000  
898.000000	 50.559000  
897.000000	 50.334999  
896.000000	 50.011000  
895.000000	 49.906000  
894.000000	 49.759000  
893.000000	 49.726000  
892.000000	 49.936000  
891.000000	 50.058000  
890.000000	 50.060000  
889.000000	 50.095000  
888.000000	 50.367000  
887.000000	 50.200000  
886.000000	 49.934000  
885.000000	 49.946000  
884.000000	 49.677000  
883.000000	 50.025000  
882.000000	 50.126000  
881.000000	 49.675999  
880.000000	 48.861000  
879.000000	 49.125000  
878.000000	 48.758000  
877.000000	 48.760000  
876.000000	 48.090000  
875.000000	 49.185000  
874.000000	 48.948000  
873.000000	 48.193000  
872.000000	 47.981000  
871.000000	 48.162000  
870.000000	 47.648000  
869.000000	 47.723000  
868.000000	 47.849000  
867.000000	 48.137000  
866.000000	 47.822000  
865.000000	 47.767000  
864.000000	 47.673000  
863.000000	 47.204000  
862.000000	 47.284000  
861.000000	 47.256000  
860.000000	 47.013000  
859.000000	 46.516000  
858.000000	 46.861000  
857.000000	 47.030000  
856.000000	 46.763000  
855.000000	 46.661000  
854.000000	 46.773000  
853.000000	 46.552000  
852.000000	 46.183000  
851.000000	 46.189000  
850.000000	 46.075000  
849.000000	 45.813000  
848.000000	 46.489999  
847.000000	 46.466000  
846.000000	 46.226000  
845.000000	 45.928000  
844.000000	 45.748000  
843.000000	 45.841000  
842.000000	 45.136000  
841.000000	 45.222000  
840.000000	 45.565000  
839.000000	 45.611000  
838.000000	 44.851000  
837.000000	 45.084999  
836.000000	 44.958000  
835.000000	 44.679000  
834.000000	 44.549000  
833.000000	 45.040000  
832.000000	 44.643000  
831.000000	 44.160000  
830.000000	 44.344000  
829.000000	 44.401000  
828.000000	 44.226000  
827.000000	 44.179000  
826.000000	 43.955000  
825.000000	 43.552000  
824.000000	 43.752000  
823.000000	 43.849000  
822.000000	 43.927000  
821.000000	 43.648000  
820.000000	 43.372000  
819.000000	 43.066000  
818.000000	 42.890000  
817.000000	 42.939000  
816.000000	 42.819000  
815.000000	 43.059000  
814.000000	 42.648000  
813.000000	 42.611000  
812.000000	 42.593000  
811.000000	 42.394000  
810.000000	 42.401000  
809.000000	 42.333000  
808.000000	 42.115000  
807.000000	 41.948000  
806.000000	 41.968000  
805.000000	 42.175000  
804.000000	 41.981000  
803.000000	 41.783000  
802.000000	 41.776000  
801.000000	 41.638000  
800.000000	 41.576000  
799.000000	 41.378000  
798.000000	 41.471000  
797.000000	 41.362000  
796.000000	 41.249000  
795.000000	 41.328000  
794.000000	 41.282999  
793.000000	 41.116000  
792.000000	 40.412000  
791.000000	 40.586000  
790.000000	 40.876000  
789.000000	 40.473000  
788.000000	 40.562000  
787.000000	 40.171000  
786.000000	 40.172999  
785.000000	 40.192000  
784.000000	 39.954000  
783.000000	 39.811000  
782.000000	 39.739999  
781.000000	 39.680000  
780.000000	 39.601000  
779.000000	 39.434000  
778.000000	 39.225000  
777.000000	 38.910000  
776.000000	 38.859000  
775.000000	 39.100000  
774.000000	 38.804000  
773.000000	 38.826000  
772.000000	 38.661000  
771.000000	 38.678000  
770.000000	 38.570000  
769.000000	 38.525000  
768.000000	 38.318000  
767.000000	 38.257000  
766.000000	 38.289000  
765.000000	 38.095000  
764.000000	 37.868000  
763.000000	 37.810000  
762.000000	 37.822000  
761.000000	 37.810000  
760.000000	 37.806000  
759.000000	 37.614000  
758.000000	 37.578000  
757.000000	 37.380000  
756.000000	 37.242999  
755.000000	 37.104000  
754.000000	 36.918000  
753.000000	 36.780000  
752.000000	 36.719000  
751.000000	 36.745000  
750.000000	 36.625000  
749.000000	 36.596000  
748.000000	 36.205000  
747.000000	 36.233000  
746.000000	 36.290000  
745.000000	 35.987000  
744.000000	 36.154000  
743.000000	 35.864000  
742.000000	 35.744000  
741.000000	 35.641000  
740.000000	 35.522000  
739.000000	 35.226000  
738.000000	 35.430000  
737.000000	 35.263000  
736.000000	 35.159000  
735.000000	 35.046000  
734.000000	 34.957000  
733.000000	 34.811000  
732.000000	 34.700000  
731.000000	 34.535000  
730.000000	 34.399000  
729.000000	 34.344000  
728.000000	 34.202000  
727.000000	 34.376000  
726.000000	 34.328000  
725.000000	 34.166999  
724.000000	 34.032000  
723.000000	 33.836000  
722.000000	 33.778000  
721.000000	 33.721000  
720.000000	 33.544000  
719.000000	 33.394000  
718.000000	 33.392000  
717.000000	 33.307000  
716.000000	 33.207000  
715.000000	 33.161000  
714.000000	 33.019000  
713.000000	 32.866000  
712.000000	 32.768000  
711.000000	 32.641000  
710.000000	 32.506000  
709.000000	 32.522000  
708.000000	 32.525000  
707.000000	 32.464000  
706.000000	 32.235000  
705.000000	 32.074000  
704.000000	 32.040000  
703.000000	 32.090000  
702.000000	 31.785000  
701.000000	 31.809000  
700.000000	 31.707000  
699.000000	 31.626000  
698.000000	 31.571000  
697.000000	 31.440000  
696.000000	 31.450000  
695.000000	 31.156000  
694.000000	 31.109000  
693.000000	 31.103000  
692.000000	 31.041000  
691.000000	 30.906000  
690.000000	 30.891000  
689.000000	 30.830000  
688.000000	 30.692000  
687.000000	 30.602000  
686.000000	 30.456000  
685.000000	 30.279000  
684.000000	 30.242000  
683.000000	 30.168000  
682.000000	 30.087000  
681.000000	 29.957000  
680.000000	 29.999000  
679.000000	 29.943000  
678.000000	 29.738000  
677.000000	 29.552000  
676.000000	 29.546000  
675.000000	 29.537000  
674.000000	 29.502000  
673.000000	 29.518000  
672.000000	 29.391000  
671.000000	 29.300000  
670.000000	 28.945000  
669.000000	 28.973000  
668.000000	 28.938000  
667.000000	 28.867000  
666.000000	 28.672000  
665.000000	 28.672000  
664.000000	 28.549000  
663.000000	 28.637000  
662.000000	 28.414000  
661.000000	 28.389000  
660.000000	 28.345000  
659.000000	 28.089000  
658.000000	 28.233000  
657.000000	 28.124000  
656.000000	 28.086000  
655.000000	 28.005000  
654.000000	 27.902000  
653.000000	 27.856000  
652.000000	 27.674000  
651.000000	 27.782000  
650.000000	 27.756000  
649.000000	 27.449000  
648.000000	 27.484000  
647.000000	 27.404000  
646.000000	 27.321000  
645.000000	 27.251000  
644.000000	 27.229000  
643.000000	 27.281000  
642.000000	 27.218000  
641.000000	 27.108000  
640.000000	 27.057000  
639.000000	 26.984000  
638.000000	 26.878000  
637.000000	 26.881000  
636.000000	 26.816000  
635.000000	 26.745000  
634.000000	 26.828000  
633.000000	 26.865000  
632.000000	 26.699000  
631.000000	 26.531000  
630.000000	 26.386000  
629.000000	 26.308000  
628.000000	 26.274000  
627.000000	 26.280000  
626.000000	 26.438000  
625.000000	 26.328000  
624.000000	 26.260000  
623.000000	 26.281000  
622.000000	 26.123000  
621.000000	 26.064000  
620.000000	 25.973000  
619.000000	 25.993000  
618.000000	 25.970000  
617.000000	 25.977000  
616.000000	 25.968000  
615.000000	 25.901000  
614.000000	 25.933000  
613.000000	 25.825000  
612.000000	 25.696000  
611.000000	 25.701000  
610.000000	 25.606000  
609.000000	 25.621000  
608.000000	 25.690000  
607.000000	 25.618000  
606.000000	 25.662000  
605.000000	 25.572000  
604.000000	 25.566000  
603.000000	 25.533000  
602.000000	 25.516000  
601.000000	 25.505000  
600.000000	 25.568000  
599.000000	 25.587000  
598.000000	 25.546000  
597.000000	 25.540000  
596.000000	 25.391000  
595.000000	 25.397000  
594.000000	 25.401000  
593.000000	 25.501000  
592.000000	 25.376000  
591.000000	 25.388000  
590.000000	 25.456000  
589.000000	 25.474000  
588.000000	 25.408000  
587.000000	 25.362000  
586.000000	 25.396000  
585.000000	 25.457000  
584.000000	 25.331000  
583.000000	 25.405000  
582.000000	 25.493000  
581.000000	 25.522000  
580.000000	 25.449000  
579.000000	 25.522000  
578.000000	 25.473000  
577.000000	 25.520000  
576.000000	 25.493000  
575.000000	 25.578000  
574.000000	 25.580000  
573.000000	 25.597000  
572.000000	 25.762000  
571.000000	 25.766000  
570.000000	 25.738000  
569.000000	 25.808000  
568.000000	 25.850000  
567.000000	 25.858000  
566.000000	 25.844000  
565.000000	 25.945000  
564.000000	 26.073000  
563.000000	 25.983000  
562.000000	 26.081000  
561.000000	 26.081000  
560.000000	 26.182000  
559.000000	 26.239000  
558.000000	 26.361000  
557.000000	 26.432000  
556.000000	 26.584000  
555.000000	 26.629000  
554.000000	 26.740000  
553.000000	 26.837000  
552.000000	 26.943000  
551.000000	 26.982000  
550.000000	 27.094000  
549.000000	 27.203000  
548.000000	 27.254000  
547.000000	 27.281000  
546.000000	 27.362000  
545.000000	 27.464000  
544.000000	 27.466000  
543.000000	 27.555000  
542.000000	 27.725000  
541.000000	 27.802000  
540.000000	 27.913000  
539.000000	 28.004000  
538.000000	 28.141000  
537.000000	 28.222000  
536.000000	 28.326000  
535.000000	 28.324000  
534.000000	 28.493000  
533.000000	 28.531000  
532.000000	 28.791000  
531.000000	 28.847000  
530.000000	 29.002000  
529.000000	 29.226000  
528.000000	 29.471000  
527.000000	 29.455000  
526.000000	 29.613000  
525.000000	 29.709000  
524.000000	 29.758000  
523.000000	 29.944000  
522.000000	 30.158000  
521.000000	 30.298000  
520.000000	 30.483000  
519.000000	 30.806000  
518.000000	 30.865000  
517.000000	 30.866000  
516.000000	 31.110000  
515.000000	 31.354000  
514.000000	 31.492000  
513.000000	 31.668000  
512.000000	 31.815000  
511.000000	 32.013000  
510.000000	 32.224000  
509.000000	 32.339000  
508.000000	 32.459000  
507.000000	 32.718000  
506.000000	 32.925000  
505.000000	 33.072000  
504.000000	 33.346000  
503.000000	 33.652000  
502.000000	 33.776000  
501.000000	 33.933000  
500.000000	 34.264000  
499.000000	 34.457000  
498.000000	 34.720000  
497.000000	 34.942000  
496.000000	 35.236000  
495.000000	 35.565000  
494.000000	 35.793000  
493.000000	 36.073000  
492.000000	 36.317000  
491.000000	 36.548000  
490.000000	 36.742999  
489.000000	 36.927000  
488.000000	 37.074000  
487.000000	 37.593000  
486.000000	 37.689000  
485.000000	 37.888000  
484.000000	 38.512000  
483.000000	 38.504000  
482.000000	 38.855000  
481.000000	 38.991000  
480.000000	 39.247000  
479.000000	 39.462000  
478.000000	 39.864000  
477.000000	 40.267000  
476.000000	 40.750000  
475.000000	 40.906000  
474.000000	 41.172000  
473.000000	 41.503000  
472.000000	 41.872000  
471.000000	 41.891000  
470.000000	 42.357000  
469.000000	 42.638000  
468.000000	 43.026000  
467.000000	 43.602000  
466.000000	 43.779000  
465.000000	 44.116000  
464.000000	 44.559000  
463.000000	 44.772000  
462.000000	 44.978000  
461.000000	 45.409000  
460.000000	 45.843000  
459.000000	 46.237000  
458.000000	 46.532000  
457.000000	 46.885000  
456.000000	 47.232000  
455.000000	 47.835000  
454.000000	 48.082000  
453.000000	 48.490000  
452.000000	 48.854000  
451.000000	 49.184000  
450.000000	 49.648000  
449.000000	 50.171000  
448.000000	 50.493000  
447.000000	 50.871999  
446.000000	 51.349999  
445.000000	 51.861000  
444.000000	 52.219000  
443.000000	 52.593000  
442.000000	 53.093999  
441.000000	 53.528000  
440.000000	 53.494000  
439.000000	 54.282000  
438.000000	 54.549000  
437.000000	 54.925999  
436.000000	 55.577000  
435.000000	 56.215000  
434.000000	 56.706999  
433.000000	 56.927000  
432.000000	 57.676000  
431.000000	 57.923000  
430.000000	 58.156000  
429.000000	 58.849000  
428.000000	 59.247000  
427.000000	 59.690000  
426.000000	 60.192000  
425.000000	 60.816000  
424.000000	 61.114000  
423.000000	 61.487000  
422.000000	 61.883999  
421.000000	 62.373000  
420.000000	 62.979000  
419.000000	 63.554999  
418.000000	 64.231000  
417.000000	 64.641000  
416.000000	 64.939000  
415.000000	 65.794000  
414.000000	 66.274000  
413.000000	 66.652000  
412.000000	 67.143000  
411.000000	 67.666000  
410.000000	 67.967000  
409.000000	 68.292000  
408.000000	 69.459000  
407.000000	 69.958000  
406.000000	 70.430000  
405.000000	 71.056000  
404.000000	 71.335000  
403.000000	 71.607000  
402.000000	 72.230999  
401.000000	 72.839000  
400.000000	 73.929000  
399.000000	 73.938999  
398.000000	 74.922000  
397.000000	 75.179000  
396.000000	 75.421000  
395.000000	 75.843000  
394.000000	 76.645000  
393.000000	 77.274000  
392.000000	 77.013000  
391.000000	 77.994000  
390.000000	 79.006000  
389.000000	 79.376000  
388.000000	 79.564000  
387.000000	 80.773000  
386.000000	 81.280000  
385.000000	 81.774000  
384.000000	 82.828999  
383.000000	 83.643999  
382.000000	 83.642000  
381.000000	 84.643999  
380.000000	 84.201000  
379.000000	 85.441999  
378.000000	 84.979000  
377.000000	 85.947000  
376.000000	 87.394000  
375.000000	 87.137000  
374.000000	 88.082000  
373.000000	 89.211000  
372.000000	 89.542000  
371.000000	 89.804000  
370.000000	 90.066000  
369.000000	 90.607000  
368.000000	 91.046000  
367.000000	 91.514000  
366.000000	 91.786999  
365.000000	 91.627000  
364.000000	 92.486000  
363.000000	 93.328999  
362.000000	 92.969000  
361.000000	 92.756000  
360.000000	 93.923999  
359.000000	 94.541000  
358.000000	 94.111000  
357.000000	 94.447000  
356.000000	 95.389000  
355.000000	 95.813999  
354.000000	 95.108000  
353.000000	 95.381000  
352.000000	 96.702999  
351.000000	 95.825000  
350.000000	 95.738999  
349.000000	 97.780999  
348.000000	 96.974000  
347.000000	 95.807000  
346.000000	 96.860999  
345.000000	 97.668000  
344.000000	 98.212999  
343.000000	 97.520000  
342.000000	 98.077000  
341.000000	 98.479000  
340.000000	 98.303000  
339.000000	 98.721999  
338.000000	 99.558000  
337.000000	 98.893000  
336.000000	 99.152000  
335.000000	 100.942000 
334.000000	 100.059000 
333.000000	 98.771000  
332.000000	 99.090999  
331.000000	 100.175000 
330.000000	 100.200000 
329.000000	 100.534000 
328.000000	 100.505000 
327.000000	 101.738000 
326.000000	 102.598000 
325.000000	 102.674000 
324.000000	 102.531000 
323.000000	 102.341000 
322.000000	 102.186000 
321.000000	 102.075000 
320.000000	 102.459000 
319.000000	 102.953000 
318.000000	 103.132000 
317.000000	 103.036000 
316.000000	 103.804000 
315.000000	 102.690000 
314.000000	 102.695000 
313.000000	 102.819000 
312.000000	 103.209000 
311.000000	 103.478000 
310.000000	 103.487000 
309.000000	 103.202000 
308.000000	 104.348000 
307.000000	 103.921000 
306.000000	 103.694000 
305.000000	 103.454000 
304.000000	 103.675000 
303.000000	 103.142000 
302.000000	 102.335000 
301.000000	 103.346000 
300.000000	 102.071000 
299.000000	 103.065000 
298.000000	 103.548000 
297.000000	 102.790000 
296.000000	 101.915000 
295.000000	 102.925000 
294.000000	 102.970000 
293.000000	 102.217000 
292.000000	 101.818000 
291.000000	 101.895000 
290.000000	 102.236000 
289.000000	 102.140000 
288.000000	 101.640000 
287.000000	 101.573000 
286.000000	 101.736000 
285.000000	 102.173000 
284.000000	 102.174000 
283.000000	 101.927000 
282.000000	 101.492000 
281.000000	 101.304000 
280.000000	 101.013000 
279.000000	 101.133000 
278.000000	 101.785000 
277.000000	 101.345000 
276.000000	 100.194000 
275.000000	 100.171000 
274.000000	 99.964000  
273.000000	 99.857000  
272.000000	 99.668000  
271.000000	 99.842000  
270.000000	 99.866999  
269.000000	 99.102999  
268.000000	 98.689000  
267.000000	 98.606000  
266.000000	 97.854000  
265.000000	 97.167000  
264.000000	 96.309000  
263.000000	 96.270000  
262.000000	 96.204000  
261.000000	 95.748000  
260.000000	 94.733000  
259.000000	 94.469000  
258.000000	 93.703999  
257.000000	 93.269000  
256.000000	 91.768000  
255.000000	 91.039000  
254.000000	 90.439000  
253.000000	 90.060000  
252.000000	 89.173000  
251.000000	 88.145000  
250.000000	 87.408000  
249.000000	 86.192000  
248.000000	 85.271000  
247.000000	 84.387999  
246.000000	 83.604000  
245.000000	 82.544000  
244.000000	 81.203999  
243.000000	 80.306999  
242.000000	 79.052000  
241.000000	 77.871000  
240.000000	 76.720999  
239.000000	 76.059000  
238.000000	 74.611000  
237.000000	 73.644000  
236.000000	 72.795000  
235.000000	 71.988000  
234.000000	 70.988000  
233.000000	 69.902000  
232.000000	 69.617999  
231.000000	 68.780000  
230.000000	 68.316000  
229.000000	 68.122000  
228.000000	 68.285000  
227.000000	 67.927000  
226.000000	 67.789999  
225.000000	 67.554000  
224.000000	 66.030999  
223.000000	 65.849999  
222.000000	 66.208000  
221.000000	 65.078999  
220.000000	 64.451000  
219.000000	 66.212999  
218.000000	 65.908999  
217.000000	 66.952000  
216.000000	 65.539999  
215.000000	 67.650000  
214.000000	 65.920999  
213.000000	 64.303999  
212.000000	 68.962000  
211.000000	 70.217000  
210.000000	 68.599000  
209.000000	 69.786000  
208.000000	 70.749000  
207.000000	 74.483999  
206.000000	 78.251000  
205.000000	 82.186000  
204.000000	 81.087000  
203.000000	 77.199000  
202.000000	 85.768000  
201.000000	 90.066000  
200.000000	 84.116000  
199.000000	 86.036999  
198.000000	 90.925000  
197.000000	 95.584999  
196.000000	 88.295999  
195.000000	 85.363000  
194.000000	 93.148000  
193.000000	 81.654000  
192.000000	 79.447999  
191.000000	 108.173000 
190.000000	 92.399000  

