PE UV                   SPECTRUM    ASCII       PEDS        1.60        
  -1
S19_05.SP
12/04/05
07:27:17.00
12/04/05
07:34:20.00


190.000000
1









4444

SCAN
1
1


0.0
1920.0
2.00
MANUAL



UV/VIS




































#HDR
-1
-1
#GR
NM
%R
0.00002384185791015625
0.0
1000.000000
1.000000
811
8
121.774000
25.364000
#DATA
1000.000000	57.386000  
999.000000	 57.841000  
998.000000	 58.138000  
997.000000	 57.749000  
996.000000	 57.662000  
995.000000	 58.194000  
994.000000	 57.727000  
993.000000	 58.012000  
992.000000	 58.259000  
991.000000	 57.605000  
990.000000	 57.632000  
989.000000	 58.121999  
988.000000	 58.019000  
987.000000	 57.749000  
986.000000	 57.373000  
985.000000	 57.248000  
984.000000	 57.404000  
983.000000	 57.462000  
982.000000	 57.428000  
981.000000	 57.425000  
980.000000	 56.973000  
979.000000	 56.755000  
978.000000	 57.049000  
977.000000	 56.626000  
976.000000	 56.525000  
975.000000	 56.745000  
974.000000	 56.721000  
973.000000	 56.485000  
972.000000	 56.611999  
971.000000	 56.733000  
970.000000	 56.576000  
969.000000	 56.590000  
968.000000	 56.545000  
967.000000	 56.294999  
966.000000	 56.114000  
965.000000	 56.174000  
964.000000	 55.884000  
963.000000	 55.911999  
962.000000	 55.596999  
961.000000	 55.801000  
960.000000	 55.520000  
959.000000	 55.635000  
958.000000	 55.462999  
957.000000	 55.374000  
956.000000	 55.465000  
955.000000	 55.223000  
954.000000	 54.944000  
953.000000	 54.793000  
952.000000	 54.784000  
951.000000	 54.698000  
950.000000	 54.639000  
949.000000	 54.764000  
948.000000	 54.517000  
947.000000	 54.291000  
946.000000	 54.207000  
945.000000	 54.267000  
944.000000	 54.530000  
943.000000	 54.354000  
942.000000	 54.115000  
941.000000	 54.081000  
940.000000	 53.874000  
939.000000	 53.730999  
938.000000	 53.754000  
937.000000	 53.583000  
936.000000	 53.552000  
935.000000	 53.571000  
934.000000	 53.432000  
933.000000	 53.306000  
932.000000	 53.316000  
931.000000	 53.156000  
930.000000	 53.100000  
929.000000	 53.036000  
928.000000	 52.992000  
927.000000	 53.121000  
926.000000	 52.983999  
925.000000	 53.020999  
924.000000	 52.756000  
923.000000	 52.646000  
922.000000	 52.630000  
921.000000	 52.188000  
920.000000	 52.144000  
919.000000	 52.086000  
918.000000	 51.977000  
917.000000	 52.023000  
916.000000	 52.337999  
915.000000	 52.060000  
914.000000	 51.794000  
913.000000	 51.688000  
912.000000	 51.737999  
911.000000	 51.956000  
910.000000	 51.633000  
909.000000	 51.294000  
908.000000	 51.527000  
907.000000	 51.276999  
906.000000	 50.961000  
905.000000	 50.936000  
904.000000	 51.217000  
903.000000	 50.826000  
902.000000	 50.552000  
901.000000	 50.788999  
900.000000	 50.831000  
899.000000	 50.842000  
898.000000	 50.580000  
897.000000	 50.548000  
896.000000	 50.345000  
895.000000	 50.059000  
894.000000	 50.343000  
893.000000	 50.285000  
892.000000	 50.127000  
891.000000	 50.282000  
890.000000	 50.243000  
889.000000	 50.221000  
888.000000	 50.170000  
887.000000	 50.348000  
886.000000	 49.918000  
885.000000	 49.667000  
884.000000	 49.887000  
883.000000	 50.043000  
882.000000	 49.430000  
881.000000	 49.316000  
880.000000	 48.765000  
879.000000	 48.999000  
878.000000	 48.705000  
877.000000	 49.109000  
876.000000	 48.817000  
875.000000	 48.850000  
874.000000	 49.327000  
873.000000	 48.500000  
872.000000	 48.546000  
871.000000	 48.334000  
870.000000	 47.911000  
869.000000	 47.680000  
868.000000	 46.877000  
867.000000	 47.567000  
866.000000	 47.464000  
865.000000	 47.312000  
864.000000	 47.003000  
863.000000	 47.717000  
862.000000	 47.887000  
861.000000	 47.145000  
860.000000	 46.916000  
859.000000	 46.939000  
858.000000	 46.707000  
857.000000	 46.983999  
856.000000	 47.402000  
855.000000	 47.279000  
854.000000	 46.826000  
853.000000	 46.852000  
852.000000	 46.495000  
851.000000	 46.258000  
850.000000	 46.308000  
849.000000	 46.191000  
848.000000	 46.290000  
847.000000	 46.207000  
846.000000	 45.966000  
845.000000	 45.650000  
844.000000	 45.265000  
843.000000	 45.378000  
842.000000	 45.690000  
841.000000	 45.584000  
840.000000	 44.993000  
839.000000	 45.298000  
838.000000	 45.247000  
837.000000	 45.147000  
836.000000	 44.493000  
835.000000	 44.487000  
834.000000	 44.527000  
833.000000	 44.297000  
832.000000	 44.170000  
831.000000	 44.134000  
830.000000	 44.189000  
829.000000	 44.519000  
828.000000	 44.391000  
827.000000	 43.862000  
826.000000	 43.669999  
825.000000	 43.959000  
824.000000	 43.498000  
823.000000	 43.295000  
822.000000	 43.484000  
821.000000	 43.376000  
820.000000	 43.364000  
819.000000	 43.207000  
818.000000	 43.191000  
817.000000	 42.961000  
816.000000	 43.019000  
815.000000	 43.008000  
814.000000	 42.907000  
813.000000	 42.853000  
812.000000	 42.801000  
811.000000	 42.893000  
810.000000	 42.462000  
809.000000	 42.177000  
808.000000	 42.226000  
807.000000	 42.040000  
806.000000	 42.034000  
805.000000	 42.207000  
804.000000	 42.277000  
803.000000	 41.985000  
802.000000	 41.937000  
801.000000	 41.874000  
800.000000	 41.507000  
799.000000	 41.653000  
798.000000	 41.622000  
797.000000	 41.614000  
796.000000	 41.387000  
795.000000	 41.257000  
794.000000	 41.199000  
793.000000	 41.307000  
792.000000	 41.212000  
791.000000	 40.928000  
790.000000	 40.720000  
789.000000	 40.693000  
788.000000	 40.709000  
787.000000	 40.459000  
786.000000	 40.230000  
785.000000	 40.254000  
784.000000	 40.317000  
783.000000	 39.547000  
782.000000	 39.809000  
781.000000	 39.670000  
780.000000	 39.440000  
779.000000	 39.546000  
778.000000	 39.494000  
777.000000	 39.293000  
776.000000	 39.166000  
775.000000	 39.169000  
774.000000	 38.976000  
773.000000	 38.680000  
772.000000	 38.465000  
771.000000	 38.617000  
770.000000	 38.778000  
769.000000	 38.702000  
768.000000	 38.477000  
767.000000	 38.291000  
766.000000	 38.025000  
765.000000	 37.912000  
764.000000	 37.777000  
763.000000	 37.604000  
762.000000	 37.757000  
761.000000	 37.608000  
760.000000	 37.381000  
759.000000	 37.593000  
758.000000	 37.342000  
757.000000	 37.099000  
756.000000	 37.143000  
755.000000	 37.200000  
754.000000	 36.939000  
753.000000	 36.848000  
752.000000	 36.729000  
751.000000	 36.522000  
750.000000	 36.455000  
749.000000	 36.332000  
748.000000	 36.157000  
747.000000	 36.121000  
746.000000	 35.977000  
745.000000	 35.998000  
744.000000	 36.079000  
743.000000	 35.696000  
742.000000	 35.794000  
741.000000	 35.578000  
740.000000	 35.508000  
739.000000	 35.404000  
738.000000	 35.399000  
737.000000	 35.388000  
736.000000	 35.034000  
735.000000	 35.173000  
734.000000	 34.984000  
733.000000	 34.891000  
732.000000	 34.608000  
731.000000	 34.639000  
730.000000	 34.593000  
729.000000	 34.400000  
728.000000	 34.285000  
727.000000	 34.302000  
726.000000	 34.177000  
725.000000	 34.073000  
724.000000	 34.049000  
723.000000	 33.933000  
722.000000	 33.798000  
721.000000	 33.751000  
720.000000	 33.706000  
719.000000	 33.621000  
718.000000	 33.525000  
717.000000	 33.395000  
716.000000	 33.298000  
715.000000	 33.166000  
714.000000	 33.061000  
713.000000	 32.940000  
712.000000	 32.754000  
711.000000	 32.844000  
710.000000	 32.839000  
709.000000	 32.595000  
708.000000	 32.466000  
707.000000	 32.467000  
706.000000	 32.340000  
705.000000	 32.161000  
704.000000	 32.139000  
703.000000	 31.889000  
702.000000	 31.772000  
701.000000	 31.759000  
700.000000	 31.912000  
699.000000	 31.721000  
698.000000	 31.594000  
697.000000	 31.647000  
696.000000	 31.452000  
695.000000	 31.336000  
694.000000	 31.205000  
693.000000	 31.023000  
692.000000	 31.032000  
691.000000	 30.930000  
690.000000	 30.837000  
689.000000	 30.784000  
688.000000	 30.709000  
687.000000	 30.642000  
686.000000	 30.579000  
685.000000	 30.446000  
684.000000	 30.230000  
683.000000	 30.248000  
682.000000	 30.207000  
681.000000	 30.166000  
680.000000	 30.059000  
679.000000	 29.977000  
678.000000	 29.835000  
677.000000	 29.706000  
676.000000	 29.484000  
675.000000	 29.539000  
674.000000	 29.529000  
673.000000	 29.413000  
672.000000	 29.456000  
671.000000	 29.377000  
670.000000	 29.211000  
669.000000	 29.160000  
668.000000	 28.994000  
667.000000	 29.004000  
666.000000	 28.799000  
665.000000	 28.804000  
664.000000	 28.865000  
663.000000	 28.607000  
662.000000	 28.525000  
661.000000	 28.453000  
660.000000	 28.583000  
659.000000	 28.396000  
658.000000	 28.449000  
657.000000	 28.178000  
656.000000	 28.074000  
655.000000	 28.184000  
654.000000	 28.044000  
653.000000	 28.163000  
652.000000	 27.921000  
651.000000	 27.895000  
650.000000	 27.743000  
649.000000	 27.709000  
648.000000	 27.542000  
647.000000	 27.397000  
646.000000	 27.404000  
645.000000	 27.374000  
644.000000	 27.290000  
643.000000	 27.368000  
642.000000	 27.314000  
641.000000	 27.062000  
640.000000	 26.986000  
639.000000	 26.961000  
638.000000	 26.971000  
637.000000	 26.951000  
636.000000	 26.824000  
635.000000	 26.786000  
634.000000	 26.788000  
633.000000	 26.751000  
632.000000	 26.695000  
631.000000	 26.624000  
630.000000	 26.491000  
629.000000	 26.444000  
628.000000	 26.360000  
627.000000	 26.387000  
626.000000	 26.378000  
625.000000	 26.295000  
624.000000	 26.243000  
623.000000	 26.184000  
622.000000	 26.131000  
621.000000	 26.101000  
620.000000	 25.977000  
619.000000	 25.943000  
618.000000	 25.996000  
617.000000	 25.874000  
616.000000	 26.008000  
615.000000	 25.821000  
614.000000	 25.709000  
613.000000	 25.722000  
612.000000	 25.873000  
611.000000	 25.695000  
610.000000	 25.665000  
609.000000	 25.702000  
608.000000	 25.756000  
607.000000	 25.623000  
606.000000	 25.645000  
605.000000	 25.609000  
604.000000	 25.558000  
603.000000	 25.599000  
602.000000	 25.603000  
601.000000	 25.599000  
600.000000	 25.626000  
599.000000	 25.615000  
598.000000	 25.557000  
597.000000	 25.529000  
596.000000	 25.366000  
595.000000	 25.439000  
594.000000	 25.418000  
593.000000	 25.364000  
592.000000	 25.452000  
591.000000	 25.517000  
590.000000	 25.504000  
589.000000	 25.473000  
588.000000	 25.527000  
587.000000	 25.467000  
586.000000	 25.376000  
585.000000	 25.370000  
584.000000	 25.471000  
583.000000	 25.535000  
582.000000	 25.507000  
581.000000	 25.580000  
580.000000	 25.670000  
579.000000	 25.593000  
578.000000	 25.541000  
577.000000	 25.595000  
576.000000	 25.522000  
575.000000	 25.605000  
574.000000	 25.720000  
573.000000	 25.761000  
572.000000	 25.710000  
571.000000	 25.674000  
570.000000	 25.778000  
569.000000	 25.745000  
568.000000	 25.800000  
567.000000	 25.812000  
566.000000	 25.932000  
565.000000	 26.081000  
564.000000	 26.112000  
563.000000	 26.132000  
562.000000	 26.125000  
561.000000	 26.149000  
560.000000	 26.201000  
559.000000	 26.291000  
558.000000	 26.346000  
557.000000	 26.485000  
556.000000	 26.722000  
555.000000	 26.799000  
554.000000	 26.881000  
553.000000	 26.971000  
552.000000	 27.047000  
551.000000	 27.118000  
550.000000	 27.155000  
549.000000	 27.207000  
548.000000	 27.357000  
547.000000	 27.488000  
546.000000	 27.522000  
545.000000	 27.549000  
544.000000	 27.644000  
543.000000	 27.630000  
542.000000	 27.657000  
541.000000	 27.765000  
540.000000	 27.933000  
539.000000	 28.123000  
538.000000	 28.273000  
537.000000	 28.397000  
536.000000	 28.431000  
535.000000	 28.563000  
534.000000	 28.673000  
533.000000	 28.683000  
532.000000	 28.914000  
531.000000	 29.012000  
530.000000	 29.182000  
529.000000	 29.288000  
528.000000	 29.360000  
527.000000	 29.527000  
526.000000	 29.695000  
525.000000	 29.670000  
524.000000	 30.110000  
523.000000	 30.188000  
522.000000	 30.291000  
521.000000	 30.602000  
520.000000	 30.626000  
519.000000	 30.843000  
518.000000	 30.952000  
517.000000	 31.178000  
516.000000	 31.154000  
515.000000	 31.433000  
514.000000	 31.602000  
513.000000	 31.769000  
512.000000	 32.028000  
511.000000	 32.201000  
510.000000	 32.374000  
509.000000	 32.530000  
508.000000	 32.753000  
507.000000	 32.924000  
506.000000	 33.111000  
505.000000	 33.352000  
504.000000	 33.579000  
503.000000	 33.793000  
502.000000	 33.999000  
501.000000	 34.245000  
500.000000	 34.494000  
499.000000	 34.669000  
498.000000	 34.792000  
497.000000	 35.046000  
496.000000	 35.176000  
495.000000	 35.517000  
494.000000	 35.915000  
493.000000	 36.232000  
492.000000	 36.537000  
491.000000	 36.654000  
490.000000	 36.854000  
489.000000	 36.986999  
488.000000	 37.333000  
487.000000	 37.648000  
486.000000	 37.868000  
485.000000	 38.204000  
484.000000	 38.433000  
483.000000	 38.790000  
482.000000	 39.050000  
481.000000	 39.348000  
480.000000	 39.790000  
479.000000	 39.890000  
478.000000	 40.178999  
477.000000	 40.568000  
476.000000	 40.852000  
475.000000	 41.076000  
474.000000	 41.319000  
473.000000	 41.569000  
472.000000	 41.875000  
471.000000	 42.232000  
470.000000	 42.566000  
469.000000	 42.958000  
468.000000	 43.326000  
467.000000	 43.614999  
466.000000	 43.904000  
465.000000	 44.350000  
464.000000	 44.699000  
463.000000	 45.042000  
462.000000	 45.444000  
461.000000	 45.904000  
460.000000	 46.344000  
459.000000	 46.578000  
458.000000	 46.918000  
457.000000	 47.335000  
456.000000	 47.725000  
455.000000	 47.923000  
454.000000	 48.390000  
453.000000	 48.749000  
452.000000	 49.260000  
451.000000	 49.631000  
450.000000	 50.041000  
449.000000	 50.338000  
448.000000	 50.737000  
447.000000	 51.030000  
446.000000	 51.416000  
445.000000	 52.090000  
444.000000	 52.123000  
443.000000	 52.532000  
442.000000	 53.146000  
441.000000	 53.700000  
440.000000	 54.064000  
439.000000	 54.655000  
438.000000	 55.187000  
437.000000	 55.685000  
436.000000	 55.931000  
435.000000	 56.367000  
434.000000	 56.681000  
433.000000	 57.035000  
432.000000	 57.598000  
431.000000	 58.239000  
430.000000	 58.587000  
429.000000	 59.107000  
428.000000	 59.731000  
427.000000	 59.833000  
426.000000	 60.199000  
425.000000	 60.782000  
424.000000	 61.301000  
423.000000	 61.761000  
422.000000	 62.459000  
421.000000	 62.752000  
420.000000	 62.630000  
419.000000	 63.221000  
418.000000	 64.307999  
417.000000	 64.707000  
416.000000	 64.783000  
415.000000	 65.889000  
414.000000	 66.605000  
413.000000	 66.792000  
412.000000	 66.977000  
411.000000	 67.596999  
410.000000	 68.394000  
409.000000	 69.159000  
408.000000	 69.717000  
407.000000	 70.262000  
406.000000	 70.942000  
405.000000	 71.020000  
404.000000	 71.205000  
403.000000	 71.718999  
402.000000	 72.568000  
401.000000	 72.767000  
400.000000	 73.535000  
399.000000	 74.003000  
398.000000	 74.185000  
397.000000	 75.087999  
396.000000	 76.226000  
395.000000	 76.491000  
394.000000	 76.849999  
393.000000	 77.042000  
392.000000	 77.873000  
391.000000	 78.524000  
390.000000	 79.354000  
389.000000	 79.239000  
388.000000	 80.384999  
387.000000	 80.591000  
386.000000	 81.336000  
385.000000	 81.918000  
384.000000	 82.062000  
383.000000	 83.134000  
382.000000	 83.932000  
381.000000	 85.757000  
380.000000	 86.191000  
379.000000	 86.331000  
378.000000	 87.248000  
377.000000	 87.244000  
376.000000	 87.570000  
375.000000	 88.912000  
374.000000	 89.795000  
373.000000	 90.230000  
372.000000	 90.613000  
371.000000	 91.414000  
370.000000	 91.065000  
369.000000	 91.508000  
368.000000	 91.993000  
367.000000	 92.455000  
366.000000	 93.017000  
365.000000	 93.122000  
364.000000	 93.686000  
363.000000	 94.622000  
362.000000	 94.640999  
361.000000	 94.923000  
360.000000	 94.955000  
359.000000	 95.012000  
358.000000	 95.613000  
357.000000	 96.470000  
356.000000	 96.390000  
355.000000	 96.284000  
354.000000	 96.852999  
353.000000	 97.015000  
352.000000	 97.125000  
351.000000	 97.501000  
350.000000	 98.272000  
349.000000	 97.961000  
348.000000	 99.043000  
347.000000	 98.314000  
346.000000	 98.630000  
345.000000	 98.853000  
344.000000	 100.268000 
343.000000	 99.393000  
342.000000	 99.077000  
341.000000	 98.855999  
340.000000	 98.933000  
339.000000	 100.837000 
338.000000	 101.401000 
337.000000	 101.098000 
336.000000	 101.685000 
335.000000	 101.429000 
334.000000	 101.736000 
333.000000	 101.248000 
332.000000	 100.831000 
331.000000	 101.476000 
330.000000	 102.006000 
329.000000	 102.493000 
328.000000	 104.081000 
327.000000	 103.390000 
326.000000	 102.798000 
325.000000	 102.879000 
324.000000	 103.144000 
323.000000	 103.339000 
322.000000	 102.769000 
321.000000	 102.610000 
320.000000	 103.079000 
319.000000	 103.507000 
318.000000	 104.209000 
317.000000	 104.784000 
316.000000	 104.339000 
315.000000	 103.965000 
314.000000	 103.749000 
313.000000	 103.975000 
312.000000	 104.179000 
311.000000	 104.256000 
310.000000	 103.585000 
309.000000	 104.100000 
308.000000	 103.937000 
307.000000	 104.777000 
306.000000	 104.201000 
305.000000	 103.990000 
304.000000	 104.112000 
303.000000	 104.389000 
302.000000	 104.266000 
301.000000	 103.768000 
300.000000	 103.876000 
299.000000	 103.522000 
298.000000	 103.301000 
297.000000	 103.186000 
296.000000	 102.253000 
295.000000	 102.422000 
294.000000	 102.994000 
293.000000	 103.219000 
292.000000	 103.141000 
291.000000	 102.468000 
290.000000	 102.298000 
289.000000	 102.383000 
288.000000	 102.563000 
287.000000	 102.600000 
286.000000	 102.554000 
285.000000	 102.283000 
284.000000	 102.123000 
283.000000	 101.957000 
282.000000	 102.234000 
281.000000	 102.025000 
280.000000	 101.743000 
279.000000	 101.488000 
278.000000	 101.621000 
277.000000	 101.647000 
276.000000	 101.066000 
275.000000	 101.011000 
274.000000	 100.853000 
273.000000	 100.739000 
272.000000	 100.823000 
271.000000	 100.308000 
270.000000	 99.353000  
269.000000	 99.248000  
268.000000	 98.809000  
267.000000	 98.711000  
266.000000	 98.367000  
265.000000	 97.850000  
264.000000	 97.661000  
263.000000	 96.872000  
262.000000	 96.618000  
261.000000	 95.907000  
260.000000	 94.915000  
259.000000	 95.008000  
258.000000	 94.640999  
257.000000	 93.298999  
256.000000	 92.214000  
255.000000	 92.117999  
254.000000	 91.245000  
253.000000	 89.959000  
252.000000	 89.172000  
251.000000	 88.271000  
250.000000	 87.361999  
249.000000	 86.402000  
248.000000	 85.634999  
247.000000	 84.205000  
246.000000	 83.258000  
245.000000	 82.565000  
244.000000	 81.526000  
243.000000	 80.572000  
242.000000	 79.256000  
241.000000	 77.610000  
240.000000	 76.856000  
239.000000	 75.959000  
238.000000	 74.560999  
237.000000	 73.782000  
236.000000	 73.033999  
235.000000	 72.071000  
234.000000	 71.670000  
233.000000	 71.040000  
232.000000	 69.626000  
231.000000	 69.335000  
230.000000	 68.440000  
229.000000	 68.467999  
228.000000	 69.199999  
227.000000	 67.892000  
226.000000	 67.020000  
225.000000	 66.561000  
224.000000	 66.429000  
223.000000	 66.358999  
222.000000	 65.951000  
221.000000	 65.813000  
220.000000	 65.395000  
219.000000	 64.866999  
218.000000	 64.771999  
217.000000	 66.206000  
216.000000	 66.884999  
215.000000	 65.622000  
214.000000	 67.154000  
213.000000	 69.621000  
212.000000	 68.066000  
211.000000	 69.014000  
210.000000	 70.732000  
209.000000	 72.128000  
208.000000	 74.849000  
207.000000	 75.200999  
206.000000	 74.434000  
205.000000	 75.366999  
204.000000	 75.098000  
203.000000	 73.599000  
202.000000	 77.753000  
201.000000	 79.229000  
200.000000	 80.316000  
199.000000	 85.996000  
198.000000	 88.666000  
197.000000	 101.097000 
196.000000	 89.184000  
195.000000	 89.527999  
194.000000	 100.721000 
193.000000	 107.890000 
192.000000	 121.774000 
191.000000	 94.101000  
190.000000	 71.660000  

