PE UV                   SPECTRUM    ASCII       PEDS        1.60        
  -1
S19_05.SP
12/04/05
07:46:12.00
12/04/05
07:54:04.00


190.000000
1









4444

SCAN
1
1


0.0
1920.0
2.00
MANUAL



UV/VIS




































#HDR
-1
-1
#GR
NM
%R
0.00002384185791015625
0.0
1000.000000
1.000000
811
8
109.139000
25.767000
#DATA
1000.000000	48.959000  
999.000000	 48.742000  
998.000000	 49.084000  
997.000000	 48.955000  
996.000000	 48.660000  
995.000000	 48.238000  
994.000000	 48.167000  
993.000000	 48.183000  
992.000000	 48.642000  
991.000000	 48.343000  
990.000000	 48.280000  
989.000000	 48.303000  
988.000000	 48.382000  
987.000000	 48.446000  
986.000000	 48.337000  
985.000000	 48.149000  
984.000000	 47.920000  
983.000000	 47.621000  
982.000000	 47.433000  
981.000000	 47.553000  
980.000000	 47.647000  
979.000000	 47.216000  
978.000000	 47.151000  
977.000000	 47.266000  
976.000000	 46.552000  
975.000000	 46.572000  
974.000000	 46.848000  
973.000000	 46.599000  
972.000000	 46.872000  
971.000000	 46.434000  
970.000000	 46.427000  
969.000000	 46.434000  
968.000000	 46.828000  
967.000000	 46.592000  
966.000000	 45.988000  
965.000000	 45.631000  
964.000000	 45.832000  
963.000000	 45.677000  
962.000000	 45.712000  
961.000000	 45.724000  
960.000000	 45.548000  
959.000000	 45.584000  
958.000000	 45.462000  
957.000000	 45.394000  
956.000000	 45.352000  
955.000000	 45.414000  
954.000000	 45.184000  
953.000000	 45.129000  
952.000000	 44.951000  
951.000000	 44.788000  
950.000000	 44.988000  
949.000000	 44.960000  
948.000000	 44.594000  
947.000000	 44.427000  
946.000000	 44.407999  
945.000000	 44.306000  
944.000000	 44.184000  
943.000000	 44.297000  
942.000000	 44.333000  
941.000000	 44.224000  
940.000000	 43.813000  
939.000000	 43.946000  
938.000000	 43.940000  
937.000000	 43.605000  
936.000000	 43.572000  
935.000000	 43.667000  
934.000000	 43.416000  
933.000000	 43.334000  
932.000000	 43.502000  
931.000000	 43.227000  
930.000000	 42.907000  
929.000000	 42.868000  
928.000000	 42.927000  
927.000000	 42.890000  
926.000000	 42.848000  
925.000000	 42.972000  
924.000000	 42.640000  
923.000000	 42.492999  
922.000000	 42.518000  
921.000000	 42.235000  
920.000000	 42.345000  
919.000000	 42.236000  
918.000000	 42.333000  
917.000000	 42.085000  
916.000000	 41.974000  
915.000000	 41.922000  
914.000000	 41.765000  
913.000000	 41.611000  
912.000000	 41.508000  
911.000000	 42.086000  
910.000000	 41.727000  
909.000000	 41.400000  
908.000000	 41.665000  
907.000000	 41.307000  
906.000000	 40.971000  
905.000000	 40.764000  
904.000000	 40.931000  
903.000000	 41.157000  
902.000000	 41.165000  
901.000000	 41.004000  
900.000000	 40.999000  
899.000000	 40.780000  
898.000000	 40.557000  
897.000000	 40.326000  
896.000000	 39.846000  
895.000000	 39.812000  
894.000000	 39.922999  
893.000000	 40.057000  
892.000000	 40.119000  
891.000000	 39.967000  
890.000000	 39.896000  
889.000000	 39.955000  
888.000000	 39.592000  
887.000000	 39.469000  
886.000000	 39.264000  
885.000000	 39.040000  
884.000000	 38.895000  
883.000000	 39.555000  
882.000000	 39.342000  
881.000000	 39.559000  
880.000000	 39.917000  
879.000000	 38.775000  
878.000000	 38.365000  
877.000000	 38.145000  
876.000000	 38.329000  
875.000000	 38.636000  
874.000000	 38.785000  
873.000000	 38.823000  
872.000000	 38.665000  
871.000000	 38.941000  
870.000000	 38.530000  
869.000000	 38.266000  
868.000000	 37.972000  
867.000000	 37.808000  
866.000000	 38.063000  
865.000000	 38.263000  
864.000000	 38.070000  
863.000000	 37.814000  
862.000000	 37.667000  
861.000000	 37.228000  
860.000000	 37.323000  
859.000000	 37.073000  
858.000000	 37.082000  
857.000000	 37.162000  
856.000000	 37.163000  
855.000000	 37.338000  
854.000000	 37.070000  
853.000000	 36.529000  
852.000000	 36.357000  
851.000000	 36.774000  
850.000000	 36.453000  
849.000000	 36.309000  
848.000000	 36.768000  
847.000000	 36.684000  
846.000000	 36.668000  
845.000000	 36.324000  
844.000000	 35.959000  
843.000000	 35.363000  
842.000000	 35.509000  
841.000000	 35.769000  
840.000000	 35.186000  
839.000000	 35.509000  
838.000000	 35.734000  
837.000000	 35.666000  
836.000000	 35.686000  
835.000000	 35.125000  
834.000000	 34.917000  
833.000000	 34.754000  
832.000000	 34.806000  
831.000000	 34.820000  
830.000000	 34.576000  
829.000000	 34.555000  
828.000000	 34.731000  
827.000000	 34.796000  
826.000000	 34.376000  
825.000000	 33.835000  
824.000000	 33.670000  
823.000000	 33.928999  
822.000000	 34.168000  
821.000000	 33.914000  
820.000000	 34.103000  
819.000000	 33.928000  
818.000000	 33.469000  
817.000000	 33.530000  
816.000000	 33.516000  
815.000000	 33.047000  
814.000000	 33.199000  
813.000000	 33.356000  
812.000000	 33.313000  
811.000000	 33.233000  
810.000000	 33.202000  
809.000000	 33.079000  
808.000000	 32.857000  
807.000000	 32.853000  
806.000000	 32.665000  
805.000000	 32.727000  
804.000000	 32.618000  
803.000000	 32.420000  
802.000000	 32.562000  
801.000000	 32.328000  
800.000000	 31.690000  
799.000000	 31.833000  
798.000000	 32.334000  
797.000000	 32.115000  
796.000000	 32.249000  
795.000000	 32.110000  
794.000000	 31.976000  
793.000000	 32.064000  
792.000000	 31.707000  
791.000000	 31.836000  
790.000000	 31.590000  
789.000000	 31.560000  
788.000000	 31.552000  
787.000000	 31.090000  
786.000000	 31.259000  
785.000000	 31.226000  
784.000000	 30.887000  
783.000000	 30.860000  
782.000000	 30.837000  
781.000000	 31.098000  
780.000000	 30.827000  
779.000000	 30.746000  
778.000000	 30.510000  
777.000000	 30.504000  
776.000000	 30.577000  
775.000000	 30.471000  
774.000000	 30.282000  
773.000000	 30.194000  
772.000000	 29.988000  
771.000000	 30.167000  
770.000000	 30.053000  
769.000000	 29.909000  
768.000000	 29.977000  
767.000000	 29.838000  
766.000000	 29.663000  
765.000000	 29.487000  
764.000000	 29.622000  
763.000000	 29.670000  
762.000000	 29.408000  
761.000000	 29.346000  
760.000000	 29.509000  
759.000000	 29.353000  
758.000000	 29.267000  
757.000000	 29.194000  
756.000000	 28.960000  
755.000000	 28.996000  
754.000000	 28.828000  
753.000000	 28.847000  
752.000000	 28.778000  
751.000000	 28.819000  
750.000000	 28.846000  
749.000000	 28.748000  
748.000000	 28.489000  
747.000000	 28.321000  
746.000000	 28.374000  
745.000000	 28.367000  
744.000000	 28.439000  
743.000000	 28.272000  
742.000000	 28.212000  
741.000000	 28.146000  
740.000000	 28.218000  
739.000000	 28.074000  
738.000000	 27.952000  
737.000000	 27.790000  
736.000000	 27.846000  
735.000000	 27.778000  
734.000000	 27.918000  
733.000000	 27.768000  
732.000000	 27.649000  
731.000000	 27.537000  
730.000000	 27.497000  
729.000000	 27.414000  
728.000000	 27.418000  
727.000000	 27.411000  
726.000000	 27.383000  
725.000000	 27.412000  
724.000000	 27.316000  
723.000000	 27.285000  
722.000000	 27.188000  
721.000000	 27.084000  
720.000000	 27.079000  
719.000000	 27.098000  
718.000000	 27.003000  
717.000000	 27.007000  
716.000000	 27.004000  
715.000000	 26.893000  
714.000000	 26.874000  
713.000000	 26.777000  
712.000000	 26.786000  
711.000000	 26.659000  
710.000000	 26.685000  
709.000000	 26.711000  
708.000000	 26.663000  
707.000000	 26.738000  
706.000000	 26.591000  
705.000000	 26.538000  
704.000000	 26.431000  
703.000000	 26.474000  
702.000000	 26.406000  
701.000000	 26.283000  
700.000000	 26.307000  
699.000000	 26.301000  
698.000000	 26.392000  
697.000000	 26.286000  
696.000000	 26.169000  
695.000000	 26.104000  
694.000000	 26.136000  
693.000000	 26.215000  
692.000000	 26.209000  
691.000000	 26.191000  
690.000000	 26.132000  
689.000000	 25.997000  
688.000000	 26.048000  
687.000000	 26.045000  
686.000000	 25.973000  
685.000000	 26.004000  
684.000000	 26.048000  
683.000000	 26.052000  
682.000000	 26.058000  
681.000000	 25.964000  
680.000000	 25.958000  
679.000000	 25.999000  
678.000000	 26.000000  
677.000000	 25.926000  
676.000000	 25.908000  
675.000000	 25.903000  
674.000000	 25.975000  
673.000000	 25.928000  
672.000000	 25.835000  
671.000000	 26.020000  
670.000000	 26.031000  
669.000000	 25.939000  
668.000000	 25.917000  
667.000000	 25.912000  
666.000000	 26.041000  
665.000000	 25.967000  
664.000000	 25.767000  
663.000000	 25.841000  
662.000000	 25.831000  
661.000000	 26.043000  
660.000000	 26.095000  
659.000000	 26.022000  
658.000000	 25.859000  
657.000000	 25.992000  
656.000000	 26.051000  
655.000000	 26.157000  
654.000000	 25.987000  
653.000000	 26.027000  
652.000000	 26.131000  
651.000000	 26.266000  
650.000000	 26.099000  
649.000000	 26.277000  
648.000000	 26.236000  
647.000000	 26.217000  
646.000000	 26.241000  
645.000000	 26.320000  
644.000000	 26.443000  
643.000000	 26.431000  
642.000000	 26.547000  
641.000000	 26.549000  
640.000000	 26.438000  
639.000000	 26.509000  
638.000000	 26.585000  
637.000000	 26.544000  
636.000000	 26.654000  
635.000000	 26.807000  
634.000000	 26.799000  
633.000000	 26.841000  
632.000000	 26.912000  
631.000000	 26.953000  
630.000000	 26.944000  
629.000000	 26.939000  
628.000000	 27.175000  
627.000000	 27.283000  
626.000000	 27.327000  
625.000000	 27.406000  
624.000000	 27.596000  
623.000000	 27.553000  
622.000000	 27.487000  
621.000000	 27.594000  
620.000000	 27.704000  
619.000000	 27.783000  
618.000000	 27.885000  
617.000000	 28.017000  
616.000000	 27.944000  
615.000000	 28.219000  
614.000000	 28.247000  
613.000000	 28.203000  
612.000000	 28.317000  
611.000000	 28.412000  
610.000000	 28.526000  
609.000000	 28.658000  
608.000000	 28.727000  
607.000000	 28.847000  
606.000000	 29.108000  
605.000000	 29.047000  
604.000000	 29.160000  
603.000000	 29.321000  
602.000000	 29.428000  
601.000000	 29.476000  
600.000000	 29.713000  
599.000000	 29.772000  
598.000000	 29.896000  
597.000000	 30.007000  
596.000000	 30.035000  
595.000000	 30.122000  
594.000000	 30.305000  
593.000000	 30.436000  
592.000000	 30.547000  
591.000000	 30.771000  
590.000000	 30.952000  
589.000000	 31.126000  
588.000000	 31.181000  
587.000000	 31.259000  
586.000000	 31.419000  
585.000000	 31.544000  
584.000000	 31.711000  
583.000000	 31.855000  
582.000000	 32.011000  
581.000000	 32.162000  
580.000000	 32.313000  
579.000000	 32.481000  
578.000000	 32.684000  
577.000000	 32.854000  
576.000000	 33.048000  
575.000000	 33.231000  
574.000000	 33.407000  
573.000000	 33.564000  
572.000000	 33.787000  
571.000000	 33.955000  
570.000000	 34.111999  
569.000000	 34.325000  
568.000000	 34.420000  
567.000000	 34.590000  
566.000000	 34.717000  
565.000000	 35.057000  
564.000000	 35.243000  
563.000000	 35.402000  
562.000000	 35.602000  
561.000000	 35.779000  
560.000000	 36.004000  
559.000000	 36.180000  
558.000000	 36.448000  
557.000000	 36.675000  
556.000000	 36.944000  
555.000000	 37.152000  
554.000000	 37.404000  
553.000000	 37.658000  
552.000000	 37.829000  
551.000000	 38.022000  
550.000000	 38.288000  
549.000000	 38.553000  
548.000000	 38.822000  
547.000000	 39.019000  
546.000000	 39.240000  
545.000000	 39.459000  
544.000000	 39.695000  
543.000000	 39.935000  
542.000000	 40.231000  
541.000000	 40.473000  
540.000000	 40.713000  
539.000000	 41.025000  
538.000000	 41.272000  
537.000000	 41.528000  
536.000000	 41.798000  
535.000000	 42.063000  
534.000000	 42.300000  
533.000000	 42.636000  
532.000000	 42.780000  
531.000000	 43.179000  
530.000000	 43.413000  
529.000000	 43.751000  
528.000000	 43.986000  
527.000000	 44.284000  
526.000000	 44.686000  
525.000000	 44.903000  
524.000000	 45.123000  
523.000000	 45.545000  
522.000000	 45.842000  
521.000000	 46.133000  
520.000000	 46.435000  
519.000000	 46.755000  
518.000000	 47.059000  
517.000000	 47.397000  
516.000000	 47.640000  
515.000000	 48.081000  
514.000000	 48.392000  
513.000000	 48.692000  
512.000000	 49.025000  
511.000000	 49.288000  
510.000000	 49.750000  
509.000000	 50.004000  
508.000000	 50.139000  
507.000000	 50.601000  
506.000000	 50.981000  
505.000000	 51.276999  
504.000000	 51.653000  
503.000000	 51.947000  
502.000000	 52.312000  
501.000000	 52.561000  
500.000000	 52.968000  
499.000000	 53.340000  
498.000000	 53.722000  
497.000000	 54.088000  
496.000000	 54.401000  
495.000000	 54.847000  
494.000000	 55.267000  
493.000000	 55.556000  
492.000000	 55.920000  
491.000000	 56.298000  
490.000000	 56.791000  
489.000000	 57.145000  
488.000000	 57.384000  
487.000000	 57.729000  
486.000000	 58.253000  
485.000000	 58.634000  
484.000000	 58.994000  
483.000000	 59.380000  
482.000000	 59.658999  
481.000000	 60.142000  
480.000000	 60.726000  
479.000000	 60.862000  
478.000000	 61.299000  
477.000000	 61.718000  
476.000000	 61.948000  
475.000000	 62.461000  
474.000000	 62.881000  
473.000000	 63.048000  
472.000000	 63.517000  
471.000000	 64.132000  
470.000000	 64.548000  
469.000000	 64.944000  
468.000000	 65.336000  
467.000000	 65.824000  
466.000000	 66.151000  
465.000000	 66.386000  
464.000000	 67.054999  
463.000000	 67.502000  
462.000000	 67.810999  
461.000000	 68.206000  
460.000000	 68.536000  
459.000000	 69.049000  
458.000000	 69.545999  
457.000000	 69.997000  
456.000000	 70.298000  
455.000000	 70.799000  
454.000000	 71.120000  
453.000000	 71.602000  
452.000000	 72.096000  
451.000000	 72.489000  
450.000000	 72.860000  
449.000000	 73.277000  
448.000000	 73.789000  
447.000000	 74.209999  
446.000000	 74.594000  
445.000000	 74.733000  
444.000000	 75.008000  
443.000000	 75.878999  
442.000000	 76.358999  
441.000000	 76.655000  
440.000000	 77.172000  
439.000000	 77.549000  
438.000000	 78.194000  
437.000000	 78.415000  
436.000000	 78.574999  
435.000000	 79.092000  
434.000000	 79.446000  
433.000000	 80.093000  
432.000000	 80.525000  
431.000000	 80.950999  
430.000000	 81.595000  
429.000000	 82.111999  
428.000000	 81.945000  
427.000000	 82.521000  
426.000000	 83.064000  
425.000000	 83.557000  
424.000000	 84.092999  
423.000000	 84.717000  
422.000000	 84.769000  
421.000000	 84.785000  
420.000000	 85.310000  
419.000000	 86.162000  
418.000000	 86.224000  
417.000000	 86.514000  
416.000000	 87.227000  
415.000000	 87.583999  
414.000000	 87.599999  
413.000000	 88.102000  
412.000000	 88.685999  
411.000000	 88.976000  
410.000000	 89.297000  
409.000000	 89.992999  
408.000000	 90.427000  
407.000000	 90.608999  
406.000000	 91.033000  
405.000000	 91.498000  
404.000000	 91.949000  
403.000000	 92.203000  
402.000000	 92.578000  
401.000000	 93.160000  
400.000000	 93.257000  
399.000000	 93.950000  
398.000000	 94.349999  
397.000000	 93.764000  
396.000000	 94.465000  
395.000000	 95.098000  
394.000000	 94.670000  
393.000000	 96.071000  
392.000000	 95.940000  
391.000000	 96.217000  
390.000000	 96.040000  
389.000000	 96.769000  
388.000000	 97.091000  
387.000000	 96.838000  
386.000000	 97.104000  
385.000000	 97.750000  
384.000000	 98.914000  
383.000000	 98.322000  
382.000000	 98.544000  
381.000000	 101.209000 
380.000000	 100.742000 
379.000000	 98.821000  
378.000000	 99.161999  
377.000000	 99.882000  
376.000000	 99.886000  
375.000000	 100.369000 
374.000000	 100.536000 
373.000000	 100.588000 
372.000000	 101.130000 
371.000000	 101.113000 
370.000000	 101.097000 
369.000000	 101.669000 
368.000000	 101.973000 
367.000000	 101.609000 
366.000000	 101.372000 
365.000000	 101.093000 
364.000000	 100.887000 
363.000000	 101.020000 
362.000000	 101.178000 
361.000000	 101.063000 
360.000000	 101.082000 
359.000000	 100.940000 
358.000000	 101.324000 
357.000000	 101.713000 
356.000000	 101.985000 
355.000000	 101.074000 
354.000000	 101.389000 
353.000000	 102.727000 
352.000000	 102.171000 
351.000000	 101.624000 
350.000000	 101.886000 
349.000000	 102.165000 
348.000000	 102.103000 
347.000000	 102.752000 
346.000000	 101.833000 
345.000000	 102.534000 
344.000000	 102.547000 
343.000000	 102.943000 
342.000000	 102.666000 
341.000000	 102.572000 
340.000000	 103.234000 
339.000000	 101.857000 
338.000000	 102.659000 
337.000000	 103.912000 
336.000000	 103.890000 
335.000000	 103.966000 
334.000000	 104.509000 
333.000000	 104.138000 
332.000000	 103.715000 
331.000000	 101.331000 
330.000000	 102.440000 
329.000000	 102.852000 
328.000000	 103.178000 
327.000000	 102.835000 
326.000000	 101.553000 
325.000000	 100.896000 
324.000000	 100.662000 
323.000000	 100.639000 
322.000000	 99.995000  
321.000000	 100.241000 
320.000000	 100.481000 
319.000000	 100.000000 
318.000000	 99.643000  
317.000000	 99.538000  
316.000000	 99.178000  
315.000000	 98.818000  
314.000000	 98.952000  
313.000000	 98.505000  
312.000000	 98.414999  
311.000000	 97.666000  
310.000000	 97.854000  
309.000000	 96.970000  
308.000000	 96.161000  
307.000000	 96.827000  
306.000000	 96.457000  
305.000000	 96.158000  
304.000000	 96.324000  
303.000000	 95.761000  
302.000000	 95.418000  
301.000000	 94.943999  
300.000000	 94.370000  
299.000000	 94.068000  
298.000000	 93.559000  
297.000000	 93.457000  
296.000000	 93.137000  
295.000000	 92.866000  
294.000000	 92.527000  
293.000000	 92.393000  
292.000000	 91.724999  
291.000000	 90.795999  
290.000000	 90.377000  
289.000000	 90.158000  
288.000000	 89.746000  
287.000000	 88.929000  
286.000000	 88.440000  
285.000000	 87.831000  
284.000000	 87.280000  
283.000000	 87.019000  
282.000000	 86.651000  
281.000000	 86.016000  
280.000000	 85.390000  
279.000000	 85.066000  
278.000000	 84.191000  
277.000000	 83.345000  
276.000000	 83.182999  
275.000000	 82.714000  
274.000000	 81.685000  
273.000000	 80.515000  
272.000000	 80.066999  
271.000000	 79.420999  
270.000000	 78.532000  
269.000000	 77.389000  
268.000000	 76.148000  
267.000000	 75.305000  
266.000000	 74.736000  
265.000000	 73.937000  
264.000000	 73.002000  
263.000000	 71.664000  
262.000000	 70.974999  
261.000000	 70.813999  
260.000000	 69.399999  
259.000000	 68.217000  
258.000000	 67.334999  
257.000000	 66.105000  
256.000000	 65.860000  
255.000000	 64.951000  
254.000000	 64.321000  
253.000000	 63.772000  
252.000000	 62.773000  
251.000000	 62.263000  
250.000000	 61.954000  
249.000000	 61.409000  
248.000000	 61.327000  
247.000000	 61.325000  
246.000000	 60.651000  
245.000000	 60.734999  
244.000000	 61.035000  
243.000000	 60.858999  
242.000000	 61.053000  
241.000000	 61.949000  
240.000000	 62.217000  
239.000000	 62.550000  
238.000000	 63.788999  
237.000000	 64.773000  
236.000000	 65.813999  
235.000000	 66.658000  
234.000000	 66.958000  
233.000000	 68.408999  
232.000000	 69.544000  
231.000000	 71.379000  
230.000000	 73.045000  
229.000000	 74.804999  
228.000000	 76.959000  
227.000000	 77.917999  
226.000000	 79.825000  
225.000000	 81.867000  
224.000000	 81.625000  
223.000000	 82.830000  
222.000000	 84.402000  
221.000000	 87.468000  
220.000000	 89.017000  
219.000000	 89.877000  
218.000000	 90.659000  
217.000000	 92.416000  
216.000000	 93.351000  
215.000000	 94.895000  
214.000000	 95.691999  
213.000000	 95.608999  
212.000000	 96.583000  
211.000000	 98.924000  
210.000000	 100.435000 
209.000000	 99.875000  
208.000000	 98.338000  
207.000000	 98.579000  
206.000000	 99.384000  
205.000000	 103.556000 
204.000000	 107.641000 
203.000000	 104.189000 
202.000000	 100.255000 
201.000000	 96.810000  
200.000000	 98.656000  
199.000000	 99.463000  
198.000000	 104.997000 
197.000000	 109.139000 
196.000000	 99.851000  
195.000000	 86.333000  
194.000000	 75.998000  
193.000000	 91.415000  
192.000000	 87.468000  
191.000000	 98.062000  
190.000000	 88.983999  

