PE UV                   SPECTRUM    ASCII       PEDS        1.60        
  -1
S19_04.SP
12/04/05
07:44:00.00
12/04/05
07:54:04.00


190.000000
1









4444

SCAN
1
1


0.0
1920.0
2.00
MANUAL



UV/VIS




































#HDR
-1
-1
#GR
NM
%R
0.00002384185791015625
0.0
1000.000000
1.000000
811
8
113.428000
25.591000
#DATA
1000.000000	48.829000  
999.000000	 49.022000  
998.000000	 49.036000  
997.000000	 49.160000  
996.000000	 48.974000  
995.000000	 48.828000  
994.000000	 48.622000  
993.000000	 48.610000  
992.000000	 48.317000  
991.000000	 48.336000  
990.000000	 48.114000  
989.000000	 48.450000  
988.000000	 48.371000  
987.000000	 48.290000  
986.000000	 48.336000  
985.000000	 48.437000  
984.000000	 47.792000  
983.000000	 47.273000  
982.000000	 47.526000  
981.000000	 47.511000  
980.000000	 47.373000  
979.000000	 47.382000  
978.000000	 47.293000  
977.000000	 47.018000  
976.000000	 47.183000  
975.000000	 47.255000  
974.000000	 46.843000  
973.000000	 46.796000  
972.000000	 47.010000  
971.000000	 46.955000  
970.000000	 46.762000  
969.000000	 46.412000  
968.000000	 46.338000  
967.000000	 46.195000  
966.000000	 46.300000  
965.000000	 45.675000  
964.000000	 46.031000  
963.000000	 45.846000  
962.000000	 46.020000  
961.000000	 45.885000  
960.000000	 45.862000  
959.000000	 45.734000  
958.000000	 45.803000  
957.000000	 45.838000  
956.000000	 45.870000  
955.000000	 45.021000  
954.000000	 45.186000  
953.000000	 45.392000  
952.000000	 44.990000  
951.000000	 45.106000  
950.000000	 45.144000  
949.000000	 44.886000  
948.000000	 44.563000  
947.000000	 44.541000  
946.000000	 44.580000  
945.000000	 44.614000  
944.000000	 44.584000  
943.000000	 44.583000  
942.000000	 44.485000  
941.000000	 44.233000  
940.000000	 43.913000  
939.000000	 43.997000  
938.000000	 43.995000  
937.000000	 43.826000  
936.000000	 43.810000  
935.000000	 43.848000  
934.000000	 43.608000  
933.000000	 43.614999  
932.000000	 43.390000  
931.000000	 43.147000  
930.000000	 43.068000  
929.000000	 43.044000  
928.000000	 42.813000  
927.000000	 42.678000  
926.000000	 42.827000  
925.000000	 42.761000  
924.000000	 42.643000  
923.000000	 42.790000  
922.000000	 42.530000  
921.000000	 42.418000  
920.000000	 42.321000  
919.000000	 42.398000  
918.000000	 42.299000  
917.000000	 42.117000  
916.000000	 42.067000  
915.000000	 41.986000  
914.000000	 41.839000  
913.000000	 41.852000  
912.000000	 41.736000  
911.000000	 41.919000  
910.000000	 41.718000  
909.000000	 41.127000  
908.000000	 41.358000  
907.000000	 41.174000  
906.000000	 41.481000  
905.000000	 41.177000  
904.000000	 40.777000  
903.000000	 40.745000  
902.000000	 40.619000  
901.000000	 40.839000  
900.000000	 40.964000  
899.000000	 40.938000  
898.000000	 40.711000  
897.000000	 40.535000  
896.000000	 40.155000  
895.000000	 39.962000  
894.000000	 39.849000  
893.000000	 39.689000  
892.000000	 39.948000  
891.000000	 39.977000  
890.000000	 39.964000  
889.000000	 39.743000  
888.000000	 39.514000  
887.000000	 39.578000  
886.000000	 39.514000  
885.000000	 39.286000  
884.000000	 39.134000  
883.000000	 39.414000  
882.000000	 39.388000  
881.000000	 39.035000  
880.000000	 39.280000  
879.000000	 39.069000  
878.000000	 38.636000  
877.000000	 38.893000  
876.000000	 38.340999  
875.000000	 38.392000  
874.000000	 38.000000  
873.000000	 38.577000  
872.000000	 38.244000  
871.000000	 38.092000  
870.000000	 37.945000  
869.000000	 37.696000  
868.000000	 37.785999  
867.000000	 37.842000  
866.000000	 38.264000  
865.000000	 37.971000  
864.000000	 37.745000  
863.000000	 37.523000  
862.000000	 37.401000  
861.000000	 37.354000  
860.000000	 37.050000  
859.000000	 36.985000  
858.000000	 37.005000  
857.000000	 37.372000  
856.000000	 37.285000  
855.000000	 37.199000  
854.000000	 36.744000  
853.000000	 36.219000  
852.000000	 36.146000  
851.000000	 36.279000  
850.000000	 36.303999  
849.000000	 36.673000  
848.000000	 36.648000  
847.000000	 36.305000  
846.000000	 36.291000  
845.000000	 36.400000  
844.000000	 35.793000  
843.000000	 35.434000  
842.000000	 35.562000  
841.000000	 35.605000  
840.000000	 35.337000  
839.000000	 35.370000  
838.000000	 35.647000  
837.000000	 35.436000  
836.000000	 35.488000  
835.000000	 35.231000  
834.000000	 35.099999  
833.000000	 34.603000  
832.000000	 34.693000  
831.000000	 34.792000  
830.000000	 34.731000  
829.000000	 34.754000  
828.000000	 34.666999  
827.000000	 34.518000  
826.000000	 34.353000  
825.000000	 34.377000  
824.000000	 34.280000  
823.000000	 33.946000  
822.000000	 34.145000  
821.000000	 34.095000  
820.000000	 33.959000  
819.000000	 33.871000  
818.000000	 33.839000  
817.000000	 33.763000  
816.000000	 33.332000  
815.000000	 33.302000  
814.000000	 33.446000  
813.000000	 33.315000  
812.000000	 33.315000  
811.000000	 33.315000  
810.000000	 33.058000  
809.000000	 33.225000  
808.000000	 33.006000  
807.000000	 32.673000  
806.000000	 32.536000  
805.000000	 32.571000  
804.000000	 32.626000  
803.000000	 32.616000  
802.000000	 32.584999  
801.000000	 32.354000  
800.000000	 32.168000  
799.000000	 32.227000  
798.000000	 32.285000  
797.000000	 31.973000  
796.000000	 31.841000  
795.000000	 32.120000  
794.000000	 31.982000  
793.000000	 31.897000  
792.000000	 31.729000  
791.000000	 31.445000  
790.000000	 31.357000  
789.000000	 31.284000  
788.000000	 31.248000  
787.000000	 31.454000  
786.000000	 31.299000  
785.000000	 31.127000  
784.000000	 30.806000  
783.000000	 30.849000  
782.000000	 30.725000  
781.000000	 30.668000  
780.000000	 30.630000  
779.000000	 30.834000  
778.000000	 30.735000  
777.000000	 30.712000  
776.000000	 30.580000  
775.000000	 30.389000  
774.000000	 30.367000  
773.000000	 30.143000  
772.000000	 30.214000  
771.000000	 30.042000  
770.000000	 29.903000  
769.000000	 29.915000  
768.000000	 30.066000  
767.000000	 29.896000  
766.000000	 29.776000  
765.000000	 29.664000  
764.000000	 29.451000  
763.000000	 29.389000  
762.000000	 29.440000  
761.000000	 29.481000  
760.000000	 29.521000  
759.000000	 29.233000  
758.000000	 29.168000  
757.000000	 29.156000  
756.000000	 29.005000  
755.000000	 29.021000  
754.000000	 29.066000  
753.000000	 28.986000  
752.000000	 28.766000  
751.000000	 28.728000  
750.000000	 28.664000  
749.000000	 28.597000  
748.000000	 28.373000  
747.000000	 28.449000  
746.000000	 28.331000  
745.000000	 28.308000  
744.000000	 28.464000  
743.000000	 28.371000  
742.000000	 28.103000  
741.000000	 28.222000  
740.000000	 28.085000  
739.000000	 27.893000  
738.000000	 28.019000  
737.000000	 27.786000  
736.000000	 27.904000  
735.000000	 27.810000  
734.000000	 27.730000  
733.000000	 27.593000  
732.000000	 27.523000  
731.000000	 27.472000  
730.000000	 27.534000  
729.000000	 27.515000  
728.000000	 27.438000  
727.000000	 27.400000  
726.000000	 27.457000  
725.000000	 27.326000  
724.000000	 27.349000  
723.000000	 27.202000  
722.000000	 27.049000  
721.000000	 27.097000  
720.000000	 27.056000  
719.000000	 27.083000  
718.000000	 27.010000  
717.000000	 26.946000  
716.000000	 26.989000  
715.000000	 27.056000  
714.000000	 26.985000  
713.000000	 26.861000  
712.000000	 26.803000  
711.000000	 26.664000  
710.000000	 26.720000  
709.000000	 26.757000  
708.000000	 26.645000  
707.000000	 26.722000  
706.000000	 26.649000  
705.000000	 26.526000  
704.000000	 26.418000  
703.000000	 26.275000  
702.000000	 26.355000  
701.000000	 26.238000  
700.000000	 26.447000  
699.000000	 26.377000  
698.000000	 26.256000  
697.000000	 26.218000  
696.000000	 26.287000  
695.000000	 26.077000  
694.000000	 26.085000  
693.000000	 25.972000  
692.000000	 26.225000  
691.000000	 26.219000  
690.000000	 26.064000  
689.000000	 26.046000  
688.000000	 26.096000  
687.000000	 26.016000  
686.000000	 25.894000  
685.000000	 25.852000  
684.000000	 25.849000  
683.000000	 25.910000  
682.000000	 25.921000  
681.000000	 25.914000  
680.000000	 25.935000  
679.000000	 25.901000  
678.000000	 25.813000  
677.000000	 25.694000  
676.000000	 25.668000  
675.000000	 25.793000  
674.000000	 25.768000  
673.000000	 25.736000  
672.000000	 25.872000  
671.000000	 25.802000  
670.000000	 25.872000  
669.000000	 25.955000  
668.000000	 25.879000  
667.000000	 25.952000  
666.000000	 25.735000  
665.000000	 25.591000  
664.000000	 25.760000  
663.000000	 25.986000  
662.000000	 25.849000  
661.000000	 25.837000  
660.000000	 26.162000  
659.000000	 26.119000  
658.000000	 25.878000  
657.000000	 25.692000  
656.000000	 25.695000  
655.000000	 25.810000  
654.000000	 25.840000  
653.000000	 25.944000  
652.000000	 26.080000  
651.000000	 26.021000  
650.000000	 26.025000  
649.000000	 26.140000  
648.000000	 25.968000  
647.000000	 25.961000  
646.000000	 26.080000  
645.000000	 26.183000  
644.000000	 26.214000  
643.000000	 26.209000  
642.000000	 26.312000  
641.000000	 26.363000  
640.000000	 26.408000  
639.000000	 26.375000  
638.000000	 26.355000  
637.000000	 26.327000  
636.000000	 26.469000  
635.000000	 26.564000  
634.000000	 26.540000  
633.000000	 26.708000  
632.000000	 26.771000  
631.000000	 26.660000  
630.000000	 26.682000  
629.000000	 26.838000  
628.000000	 26.865000  
627.000000	 26.880000  
626.000000	 27.014000  
625.000000	 27.195000  
624.000000	 27.220000  
623.000000	 27.182000  
622.000000	 27.246000  
621.000000	 27.342000  
620.000000	 27.372000  
619.000000	 27.472000  
618.000000	 27.544000  
617.000000	 27.633000  
616.000000	 27.812000  
615.000000	 27.911000  
614.000000	 27.924000  
613.000000	 27.996000  
612.000000	 28.073000  
611.000000	 28.189000  
610.000000	 28.152000  
609.000000	 28.309000  
608.000000	 28.523000  
607.000000	 28.623000  
606.000000	 28.672000  
605.000000	 28.892000  
604.000000	 28.847000  
603.000000	 28.939000  
602.000000	 29.079000  
601.000000	 29.247000  
600.000000	 29.295000  
599.000000	 29.413000  
598.000000	 29.588000  
597.000000	 29.730000  
596.000000	 29.696000  
595.000000	 29.813000  
594.000000	 29.983000  
593.000000	 30.034000  
592.000000	 30.157000  
591.000000	 30.327000  
590.000000	 30.464000  
589.000000	 30.612000  
588.000000	 30.760000  
587.000000	 30.839000  
586.000000	 30.925000  
585.000000	 31.061000  
584.000000	 31.287000  
583.000000	 31.440000  
582.000000	 31.583000  
581.000000	 31.761000  
580.000000	 31.966000  
579.000000	 32.043000  
578.000000	 32.139000  
577.000000	 32.299000  
576.000000	 32.563000  
575.000000	 32.720000  
574.000000	 33.033000  
573.000000	 33.160000  
572.000000	 33.277000  
571.000000	 33.387000  
570.000000	 33.566000  
569.000000	 33.712000  
568.000000	 33.906000  
567.000000	 34.105999  
566.000000	 34.337000  
565.000000	 34.564000  
564.000000	 34.733000  
563.000000	 34.922000  
562.000000	 35.037000  
561.000000	 35.204000  
560.000000	 35.407000  
559.000000	 35.573000  
558.000000	 35.819000  
557.000000	 36.035000  
556.000000	 36.252000  
555.000000	 36.481000  
554.000000	 36.710000  
553.000000	 36.942000  
552.000000	 37.097000  
551.000000	 37.325000  
550.000000	 37.550000  
549.000000	 37.775000  
548.000000	 38.051000  
547.000000	 38.268000  
546.000000	 38.511000  
545.000000	 38.733000  
544.000000	 38.957000  
543.000000	 39.225000  
542.000000	 39.467000  
541.000000	 39.746000  
540.000000	 39.970000  
539.000000	 40.226000  
538.000000	 40.513000  
537.000000	 40.733000  
536.000000	 40.992000  
535.000000	 41.227000  
534.000000	 41.452000  
533.000000	 41.691000  
532.000000	 41.930000  
531.000000	 42.285000  
530.000000	 42.613000  
529.000000	 42.902000  
528.000000	 43.312000  
527.000000	 43.555000  
526.000000	 43.700000  
525.000000	 43.980999  
524.000000	 44.258000  
523.000000	 44.610000  
522.000000	 44.903000  
521.000000	 45.347000  
520.000000	 45.451000  
519.000000	 45.931000  
518.000000	 46.155000  
517.000000	 46.413000  
516.000000	 46.775000  
515.000000	 47.101000  
514.000000	 47.366000  
513.000000	 47.719000  
512.000000	 48.010000  
511.000000	 48.354000  
510.000000	 48.776000  
509.000000	 49.083000  
508.000000	 49.323000  
507.000000	 49.705000  
506.000000	 50.050000  
505.000000	 50.456000  
504.000000	 50.839000  
503.000000	 51.066000  
502.000000	 51.390000  
501.000000	 51.715000  
500.000000	 52.075000  
499.000000	 52.420000  
498.000000	 52.761000  
497.000000	 53.095000  
496.000000	 53.560000  
495.000000	 53.978000  
494.000000	 54.303999  
493.000000	 54.739000  
492.000000	 55.002000  
491.000000	 55.400000  
490.000000	 55.700000  
489.000000	 56.009000  
488.000000	 56.518000  
487.000000	 56.959000  
486.000000	 57.372000  
485.000000	 57.633000  
484.000000	 57.974000  
483.000000	 58.416999  
482.000000	 58.730000  
481.000000	 58.968000  
480.000000	 59.258999  
479.000000	 59.906000  
478.000000	 60.350000  
477.000000	 60.663000  
476.000000	 61.112999  
475.000000	 61.665000  
474.000000	 61.843000  
473.000000	 62.120000  
472.000000	 62.432000  
471.000000	 62.979000  
470.000000	 63.607000  
469.000000	 64.196000  
468.000000	 64.500999  
467.000000	 64.771000  
466.000000	 65.179000  
465.000000	 65.593000  
464.000000	 65.992999  
463.000000	 66.412000  
462.000000	 66.715999  
461.000000	 67.129000  
460.000000	 67.562000  
459.000000	 68.200000  
458.000000	 68.603000  
457.000000	 68.947000  
456.000000	 69.232000  
455.000000	 69.774999  
454.000000	 70.161000  
453.000000	 70.509000  
452.000000	 71.072000  
451.000000	 71.479000  
450.000000	 71.791000  
449.000000	 72.256000  
448.000000	 72.675000  
447.000000	 73.087000  
446.000000	 73.438999  
445.000000	 73.906000  
444.000000	 74.206999  
443.000000	 74.684000  
442.000000	 75.265000  
441.000000	 75.696000  
440.000000	 75.756999  
439.000000	 76.224000  
438.000000	 76.726000  
437.000000	 77.319000  
436.000000	 77.341000  
435.000000	 78.019000  
434.000000	 78.690000  
433.000000	 78.848000  
432.000000	 79.542000  
431.000000	 79.836000  
430.000000	 80.064000  
429.000000	 80.696000  
428.000000	 81.113000  
427.000000	 81.203000  
426.000000	 81.584000  
425.000000	 81.837000  
424.000000	 82.576000  
423.000000	 82.761000  
422.000000	 83.242000  
421.000000	 83.906000  
420.000000	 84.567000  
419.000000	 84.718000  
418.000000	 85.033999  
417.000000	 85.828000  
416.000000	 86.421000  
415.000000	 86.658000  
414.000000	 86.819999  
413.000000	 87.165000  
412.000000	 87.455000  
411.000000	 87.729999  
410.000000	 87.700999  
409.000000	 88.402000  
408.000000	 88.693000  
407.000000	 89.417999  
406.000000	 89.876000  
405.000000	 90.319000  
404.000000	 90.297000  
403.000000	 90.795000  
402.000000	 91.334000  
401.000000	 91.503999  
400.000000	 92.152000  
399.000000	 92.509000  
398.000000	 92.271000  
397.000000	 92.688000  
396.000000	 93.694999  
395.000000	 93.905000  
394.000000	 93.720000  
393.000000	 94.467000  
392.000000	 95.116999  
391.000000	 95.181000  
390.000000	 95.981000  
389.000000	 95.859000  
388.000000	 96.080000  
387.000000	 96.238000  
386.000000	 96.529000  
385.000000	 96.822000  
384.000000	 97.473000  
383.000000	 97.586000  
382.000000	 97.458000  
381.000000	 97.167999  
380.000000	 97.896000  
379.000000	 98.206999  
378.000000	 98.546000  
377.000000	 98.444000  
376.000000	 98.102000  
375.000000	 98.752000  
374.000000	 98.609000  
373.000000	 98.477000  
372.000000	 99.070000  
371.000000	 99.160000  
370.000000	 99.231000  
369.000000	 99.312000  
368.000000	 99.773000  
367.000000	 99.212999  
366.000000	 99.292000  
365.000000	 99.837000  
364.000000	 99.440000  
363.000000	 98.919000  
362.000000	 99.961000  
361.000000	 100.052000 
360.000000	 100.382000 
359.000000	 100.137000 
358.000000	 99.807000  
357.000000	 99.766000  
356.000000	 100.225000 
355.000000	 100.943000 
354.000000	 100.645000 
353.000000	 99.871000  
352.000000	 100.332000 
351.000000	 100.350000 
350.000000	 100.415000 
349.000000	 100.186000 
348.000000	 101.068000 
347.000000	 101.225000 
346.000000	 100.401000 
345.000000	 100.380000 
344.000000	 99.980000  
343.000000	 100.586000 
342.000000	 101.073000 
341.000000	 101.137000 
340.000000	 100.117000 
339.000000	 100.632000 
338.000000	 100.707000 
337.000000	 101.097000 
336.000000	 99.797000  
335.000000	 99.172000  
334.000000	 101.060000 
333.000000	 101.659000 
332.000000	 100.011000 
331.000000	 100.795000 
330.000000	 100.680000 
329.000000	 101.166000 
328.000000	 100.194000 
327.000000	 100.096000 
326.000000	 100.231000 
325.000000	 99.792000  
324.000000	 99.059000  
323.000000	 99.142000  
322.000000	 99.310000  
321.000000	 99.062000  
320.000000	 99.107999  
319.000000	 98.904000  
318.000000	 98.387999  
317.000000	 97.872000  
316.000000	 97.846999  
315.000000	 98.181000  
314.000000	 97.506000  
313.000000	 97.479000  
312.000000	 97.809000  
311.000000	 97.082000  
310.000000	 96.584000  
309.000000	 97.158000  
308.000000	 96.848999  
307.000000	 96.449000  
306.000000	 95.895000  
305.000000	 95.515000  
304.000000	 95.328000  
303.000000	 94.869000  
302.000000	 94.583000  
301.000000	 94.708000  
300.000000	 93.833000  
299.000000	 93.156000  
298.000000	 92.884999  
297.000000	 93.203999  
296.000000	 92.444999  
295.000000	 92.049000  
294.000000	 91.892000  
293.000000	 91.661000  
292.000000	 90.747999  
291.000000	 90.083000  
290.000000	 89.307999  
289.000000	 89.149999  
288.000000	 88.782000  
287.000000	 88.342000  
286.000000	 87.688999  
285.000000	 87.211000  
284.000000	 87.229000  
283.000000	 86.809000  
282.000000	 85.776000  
281.000000	 85.596999  
280.000000	 85.271000  
279.000000	 84.557999  
278.000000	 83.484000  
277.000000	 82.758000  
276.000000	 82.069000  
275.000000	 81.589999  
274.000000	 81.041000  
273.000000	 79.768000  
272.000000	 79.215000  
271.000000	 78.538000  
270.000000	 78.005000  
269.000000	 76.817000  
268.000000	 76.736000  
267.000000	 75.137000  
266.000000	 74.148000  
265.000000	 73.462000  
264.000000	 72.589000  
263.000000	 71.358000  
262.000000	 70.603000  
261.000000	 70.008000  
260.000000	 68.759000  
259.000000	 67.774000  
258.000000	 66.590999  
257.000000	 65.554999  
256.000000	 64.694000  
255.000000	 64.283000  
254.000000	 63.886000  
253.000000	 63.210000  
252.000000	 62.334000  
251.000000	 61.967000  
250.000000	 61.574000  
249.000000	 61.166000  
248.000000	 60.918000  
247.000000	 60.655000  
246.000000	 60.341000  
245.000000	 60.121000  
244.000000	 60.263000  
243.000000	 60.272000  
242.000000	 60.185999  
241.000000	 60.133000  
240.000000	 61.016000  
239.000000	 61.894000  
238.000000	 62.430000  
237.000000	 63.222000  
236.000000	 64.024000  
235.000000	 65.695000  
234.000000	 66.722000  
233.000000	 68.068000  
232.000000	 69.122000  
231.000000	 70.262999  
230.000000	 72.091000  
229.000000	 73.731000  
228.000000	 74.556000  
227.000000	 76.235000  
226.000000	 78.595000  
225.000000	 80.309000  
224.000000	 81.210000  
223.000000	 81.836000  
222.000000	 84.099000  
221.000000	 85.536999  
220.000000	 87.571000  
219.000000	 88.965000  
218.000000	 89.741000  
217.000000	 89.774000  
216.000000	 90.810000  
215.000000	 91.235000  
214.000000	 93.793000  
213.000000	 94.459000  
212.000000	 96.533000  
211.000000	 96.247000  
210.000000	 100.604000 
209.000000	 102.411000 
208.000000	 101.907000 
207.000000	 99.597000  
206.000000	 101.125000 
205.000000	 102.930000 
204.000000	 104.841000 
203.000000	 103.716000 
202.000000	 108.688000 
201.000000	 105.620000 
200.000000	 99.250000  
199.000000	 101.890000 
198.000000	 106.139000 
197.000000	 92.756000  
196.000000	 92.545000  
195.000000	 107.769000 
194.000000	 102.115000 
193.000000	 95.672000  
192.000000	 76.205000  
191.000000	 77.636000  
190.000000	 113.428000 

