PE UV                   SPECTRUM    ASCII       PEDS        1.60        
  -1
S19_03.SP
12/04/05
07:41:53.00
12/04/05
07:54:04.00


190.000000
1









4444

SCAN
1
1


0.0
1920.0
2.00
MANUAL



UV/VIS




































#HDR
-1
-1
#GR
NM
%R
0.00002384185791015625
0.0
1000.000000
1.000000
811
8
119.857000
25.481000
#DATA
1000.000000	49.332000  
999.000000	 49.179000  
998.000000	 49.039000  
997.000000	 48.373000  
996.000000	 48.338000  
995.000000	 48.111000  
994.000000	 48.480000  
993.000000	 48.612000  
992.000000	 48.254000  
991.000000	 48.315000  
990.000000	 48.354000  
989.000000	 48.352000  
988.000000	 48.389000  
987.000000	 48.011000  
986.000000	 47.740000  
985.000000	 47.462000  
984.000000	 47.601000  
983.000000	 47.480000  
982.000000	 47.418000  
981.000000	 47.299000  
980.000000	 47.333000  
979.000000	 47.433000  
978.000000	 47.264000  
977.000000	 47.238000  
976.000000	 47.034000  
975.000000	 46.925000  
974.000000	 46.871000  
973.000000	 47.012000  
972.000000	 46.958000  
971.000000	 46.741000  
970.000000	 46.607000  
969.000000	 46.227000  
968.000000	 46.388000  
967.000000	 46.386000  
966.000000	 46.339000  
965.000000	 46.003000  
964.000000	 45.572000  
963.000000	 45.998000  
962.000000	 45.998000  
961.000000	 45.892000  
960.000000	 45.320000  
959.000000	 45.752000  
958.000000	 45.643000  
957.000000	 45.406000  
956.000000	 45.515000  
955.000000	 45.414000  
954.000000	 45.206000  
953.000000	 45.068000  
952.000000	 45.107000  
951.000000	 44.784000  
950.000000	 44.648000  
949.000000	 44.667000  
948.000000	 44.851000  
947.000000	 44.592000  
946.000000	 44.443000  
945.000000	 44.589000  
944.000000	 44.406000  
943.000000	 44.182000  
942.000000	 44.169000  
941.000000	 44.087000  
940.000000	 43.783000  
939.000000	 43.840000  
938.000000	 43.845000  
937.000000	 43.751000  
936.000000	 43.645000  
935.000000	 43.734000  
934.000000	 43.724000  
933.000000	 43.419999  
932.000000	 43.239000  
931.000000	 43.213000  
930.000000	 43.100000  
929.000000	 43.006000  
928.000000	 42.855000  
927.000000	 42.965000  
926.000000	 42.841000  
925.000000	 43.041000  
924.000000	 42.787000  
923.000000	 42.485000  
922.000000	 42.584000  
921.000000	 42.392000  
920.000000	 42.272000  
919.000000	 42.341000  
918.000000	 42.285000  
917.000000	 42.217000  
916.000000	 41.969000  
915.000000	 41.815000  
914.000000	 41.737000  
913.000000	 41.694000  
912.000000	 41.751000  
911.000000	 42.338000  
910.000000	 41.909000  
909.000000	 41.567000  
908.000000	 41.463000  
907.000000	 41.342000  
906.000000	 40.985000  
905.000000	 40.769000  
904.000000	 40.767000  
903.000000	 40.965000  
902.000000	 40.800000  
901.000000	 40.817000  
900.000000	 40.688000  
899.000000	 40.559000  
898.000000	 40.691000  
897.000000	 40.593000  
896.000000	 40.391000  
895.000000	 40.312000  
894.000000	 40.269000  
893.000000	 39.989999  
892.000000	 39.903000  
891.000000	 39.955000  
890.000000	 39.944000  
889.000000	 39.904000  
888.000000	 39.517000  
887.000000	 39.599000  
886.000000	 39.513000  
885.000000	 39.336000  
884.000000	 39.048000  
883.000000	 39.031000  
882.000000	 39.102000  
881.000000	 39.092000  
880.000000	 38.828000  
879.000000	 38.618000  
878.000000	 38.956000  
877.000000	 38.771000  
876.000000	 38.465000  
875.000000	 38.792000  
874.000000	 38.845000  
873.000000	 38.755000  
872.000000	 38.570000  
871.000000	 38.703000  
870.000000	 38.039000  
869.000000	 37.916000  
868.000000	 37.955000  
867.000000	 38.127000  
866.000000	 37.971000  
865.000000	 38.287000  
864.000000	 38.409000  
863.000000	 37.801000  
862.000000	 37.779000  
861.000000	 37.531000  
860.000000	 37.222000  
859.000000	 37.242999  
858.000000	 37.295000  
857.000000	 37.270000  
856.000000	 37.071000  
855.000000	 37.316000  
854.000000	 36.946000  
853.000000	 36.862000  
852.000000	 36.807000  
851.000000	 36.376000  
850.000000	 35.885000  
849.000000	 35.829000  
848.000000	 36.586000  
847.000000	 36.309000  
846.000000	 35.984000  
845.000000	 35.908000  
844.000000	 35.912000  
843.000000	 35.870000  
842.000000	 35.848000  
841.000000	 35.614000  
840.000000	 35.716000  
839.000000	 35.768000  
838.000000	 35.502000  
837.000000	 35.367000  
836.000000	 35.186000  
835.000000	 34.988000  
834.000000	 35.050000  
833.000000	 35.210000  
832.000000	 34.752000  
831.000000	 34.981000  
830.000000	 34.807000  
829.000000	 34.824000  
828.000000	 34.804000  
827.000000	 34.409000  
826.000000	 34.394000  
825.000000	 34.124000  
824.000000	 33.937000  
823.000000	 34.229000  
822.000000	 34.117000  
821.000000	 33.902000  
820.000000	 34.150000  
819.000000	 33.830000  
818.000000	 33.486000  
817.000000	 33.602000  
816.000000	 33.649000  
815.000000	 33.430000  
814.000000	 33.567000  
813.000000	 33.279000  
812.000000	 33.217000  
811.000000	 33.281000  
810.000000	 33.218000  
809.000000	 33.115000  
808.000000	 32.983000  
807.000000	 32.875000  
806.000000	 32.741000  
805.000000	 32.594000  
804.000000	 32.653000  
803.000000	 32.356000  
802.000000	 32.370000  
801.000000	 32.397000  
800.000000	 32.104000  
799.000000	 32.092000  
798.000000	 31.816000  
797.000000	 31.881000  
796.000000	 32.212000  
795.000000	 32.133000  
794.000000	 31.992000  
793.000000	 31.633000  
792.000000	 31.837000  
791.000000	 31.332000  
790.000000	 31.481000  
789.000000	 31.525000  
788.000000	 31.109000  
787.000000	 31.577000  
786.000000	 31.173000  
785.000000	 31.313000  
784.000000	 31.225000  
783.000000	 31.044000  
782.000000	 30.665000  
781.000000	 30.753000  
780.000000	 30.665000  
779.000000	 30.433000  
778.000000	 30.512000  
777.000000	 30.589000  
776.000000	 30.760000  
775.000000	 30.411000  
774.000000	 30.046000  
773.000000	 30.259000  
772.000000	 30.213000  
771.000000	 30.008000  
770.000000	 30.127000  
769.000000	 30.216000  
768.000000	 30.162000  
767.000000	 29.794000  
766.000000	 29.744000  
765.000000	 29.466000  
764.000000	 29.404000  
763.000000	 29.424000  
762.000000	 29.450000  
761.000000	 29.350000  
760.000000	 29.361000  
759.000000	 29.384000  
758.000000	 29.242000  
757.000000	 29.005000  
756.000000	 28.923000  
755.000000	 28.915000  
754.000000	 28.927000  
753.000000	 29.024000  
752.000000	 28.848000  
751.000000	 28.851000  
750.000000	 28.670000  
749.000000	 28.482000  
748.000000	 28.373000  
747.000000	 28.527000  
746.000000	 28.396000  
745.000000	 28.346000  
744.000000	 28.289000  
743.000000	 28.341000  
742.000000	 28.248000  
741.000000	 28.187000  
740.000000	 28.035000  
739.000000	 27.944000  
738.000000	 27.908000  
737.000000	 27.903000  
736.000000	 27.807000  
735.000000	 27.805000  
734.000000	 27.648000  
733.000000	 27.693000  
732.000000	 27.620000  
731.000000	 27.595000  
730.000000	 27.457000  
729.000000	 27.343000  
728.000000	 27.322000  
727.000000	 27.342000  
726.000000	 27.277000  
725.000000	 27.376000  
724.000000	 27.426000  
723.000000	 27.209000  
722.000000	 27.178000  
721.000000	 27.144000  
720.000000	 27.124000  
719.000000	 27.037000  
718.000000	 27.057000  
717.000000	 27.014000  
716.000000	 26.875000  
715.000000	 26.926000  
714.000000	 26.926000  
713.000000	 26.839000  
712.000000	 26.715000  
711.000000	 26.669000  
710.000000	 26.583000  
709.000000	 26.634000  
708.000000	 26.687000  
707.000000	 26.734000  
706.000000	 26.646000  
705.000000	 26.410000  
704.000000	 26.444000  
703.000000	 26.267000  
702.000000	 26.326000  
701.000000	 26.335000  
700.000000	 26.350000  
699.000000	 26.193000  
698.000000	 26.249000  
697.000000	 26.191000  
696.000000	 26.128000  
695.000000	 26.039000  
694.000000	 26.043000  
693.000000	 26.115000  
692.000000	 25.984000  
691.000000	 26.175000  
690.000000	 26.144000  
689.000000	 25.968000  
688.000000	 25.943000  
687.000000	 25.905000  
686.000000	 25.897000  
685.000000	 25.854000  
684.000000	 25.810000  
683.000000	 25.785000  
682.000000	 25.795000  
681.000000	 25.843000  
680.000000	 25.848000  
679.000000	 25.743000  
678.000000	 25.689000  
677.000000	 25.784000  
676.000000	 25.811000  
675.000000	 25.747000  
674.000000	 25.761000  
673.000000	 25.703000  
672.000000	 25.746000  
671.000000	 25.831000  
670.000000	 25.883000  
669.000000	 25.792000  
668.000000	 25.657000  
667.000000	 25.481000  
666.000000	 25.549000  
665.000000	 25.575000  
664.000000	 25.658000  
663.000000	 25.774000  
662.000000	 25.807000  
661.000000	 25.790000  
660.000000	 25.873000  
659.000000	 25.667000  
658.000000	 25.846000  
657.000000	 25.796000  
656.000000	 25.660000  
655.000000	 25.712000  
654.000000	 25.870000  
653.000000	 25.851000  
652.000000	 26.032000  
651.000000	 26.096000  
650.000000	 26.067000  
649.000000	 25.983000  
648.000000	 25.971000  
647.000000	 26.163000  
646.000000	 25.971000  
645.000000	 26.000000  
644.000000	 26.168000  
643.000000	 26.129000  
642.000000	 26.188000  
641.000000	 26.393000  
640.000000	 26.388000  
639.000000	 26.218000  
638.000000	 26.256000  
637.000000	 26.390000  
636.000000	 26.588000  
635.000000	 26.551000  
634.000000	 26.568000  
633.000000	 26.674000  
632.000000	 26.588000  
631.000000	 26.602000  
630.000000	 26.727000  
629.000000	 26.799000  
628.000000	 26.856000  
627.000000	 26.921000  
626.000000	 27.022000  
625.000000	 27.131000  
624.000000	 27.143000  
623.000000	 27.174000  
622.000000	 27.218000  
621.000000	 27.335000  
620.000000	 27.439000  
619.000000	 27.329000  
618.000000	 27.456000  
617.000000	 27.587000  
616.000000	 27.719000  
615.000000	 27.805000  
614.000000	 27.795000  
613.000000	 27.961000  
612.000000	 27.928000  
611.000000	 27.940000  
610.000000	 28.053000  
609.000000	 28.178000  
608.000000	 28.385000  
607.000000	 28.396000  
606.000000	 28.613000  
605.000000	 28.634000  
604.000000	 28.622000  
603.000000	 28.766000  
602.000000	 28.866000  
601.000000	 28.989000  
600.000000	 29.145000  
599.000000	 29.314000  
598.000000	 29.379000  
597.000000	 29.540000  
596.000000	 29.582000  
595.000000	 29.676000  
594.000000	 29.762000  
593.000000	 29.924000  
592.000000	 30.130000  
591.000000	 30.251000  
590.000000	 30.336000  
589.000000	 30.523000  
588.000000	 30.735000  
587.000000	 30.831000  
586.000000	 30.940000  
585.000000	 31.061000  
584.000000	 31.183000  
583.000000	 31.353000  
582.000000	 31.517000  
581.000000	 31.725000  
580.000000	 31.819000  
579.000000	 32.021000  
578.000000	 32.142000  
577.000000	 32.254000  
576.000000	 32.347000  
575.000000	 32.517000  
574.000000	 32.746000  
573.000000	 32.925000  
572.000000	 33.197000  
571.000000	 33.364000  
570.000000	 33.441000  
569.000000	 33.684000  
568.000000	 33.859000  
567.000000	 33.959000  
566.000000	 34.245000  
565.000000	 34.421000  
564.000000	 34.586000  
563.000000	 34.781000  
562.000000	 34.939000  
561.000000	 35.135000  
560.000000	 35.364000  
559.000000	 35.522000  
558.000000	 35.753000  
557.000000	 36.004000  
556.000000	 36.260000  
555.000000	 36.485000  
554.000000	 36.688000  
553.000000	 36.911000  
552.000000	 37.169999  
551.000000	 37.363000  
550.000000	 37.622000  
549.000000	 37.854000  
548.000000	 38.035999  
547.000000	 38.324000  
546.000000	 38.512000  
545.000000	 38.724000  
544.000000	 38.950000  
543.000000	 39.188000  
542.000000	 39.399000  
541.000000	 39.678000  
540.000000	 40.029000  
539.000000	 40.280000  
538.000000	 40.481000  
537.000000	 40.657000  
536.000000	 40.926000  
535.000000	 41.166000  
534.000000	 41.467000  
533.000000	 41.760000  
532.000000	 42.111000  
531.000000	 42.316000  
530.000000	 42.651000  
529.000000	 42.998000  
528.000000	 43.126000  
527.000000	 43.478000  
526.000000	 43.778000  
525.000000	 44.093000  
524.000000	 44.325000  
523.000000	 44.548000  
522.000000	 44.909000  
521.000000	 45.213000  
520.000000	 45.517000  
519.000000	 45.807000  
518.000000	 46.121000  
517.000000	 46.415000  
516.000000	 46.807000  
515.000000	 47.016000  
514.000000	 47.314000  
513.000000	 47.681000  
512.000000	 48.040000  
511.000000	 48.348000  
510.000000	 48.664000  
509.000000	 49.032000  
508.000000	 49.351000  
507.000000	 49.677000  
506.000000	 49.948000  
505.000000	 50.268000  
504.000000	 50.675000  
503.000000	 51.102000  
502.000000	 51.400000  
501.000000	 51.654999  
500.000000	 51.931000  
499.000000	 52.359000  
498.000000	 52.761000  
497.000000	 53.133000  
496.000000	 53.449000  
495.000000	 53.707000  
494.000000	 54.202000  
493.000000	 54.626000  
492.000000	 54.842000  
491.000000	 55.223000  
490.000000	 55.651000  
489.000000	 55.915000  
488.000000	 56.379000  
487.000000	 56.914000  
486.000000	 57.289000  
485.000000	 57.626000  
484.000000	 57.803000  
483.000000	 58.330000  
482.000000	 58.563000  
481.000000	 58.877000  
480.000000	 59.450000  
479.000000	 59.716000  
478.000000	 60.336000  
477.000000	 60.804000  
476.000000	 61.070000  
475.000000	 61.534000  
474.000000	 61.733000  
473.000000	 62.160000  
472.000000	 62.514000  
471.000000	 62.905000  
470.000000	 63.430000  
469.000000	 63.815000  
468.000000	 64.184000  
467.000000	 64.856000  
466.000000	 65.187000  
465.000000	 65.489000  
464.000000	 65.846000  
463.000000	 66.310999  
462.000000	 66.769000  
461.000000	 67.251000  
460.000000	 67.672000  
459.000000	 67.994000  
458.000000	 68.298999  
457.000000	 68.684000  
456.000000	 69.021000  
455.000000	 69.473000  
454.000000	 69.895000  
453.000000	 70.578000  
452.000000	 71.003000  
451.000000	 71.276000  
450.000000	 71.590000  
449.000000	 72.111999  
448.000000	 72.897000  
447.000000	 72.929999  
446.000000	 73.333000  
445.000000	 73.802000  
444.000000	 74.450999  
443.000000	 74.909000  
442.000000	 75.191000  
441.000000	 75.684000  
440.000000	 76.129000  
439.000000	 76.490000  
438.000000	 76.875000  
437.000000	 77.328000  
436.000000	 77.837999  
435.000000	 78.385000  
434.000000	 78.729000  
433.000000	 78.944000  
432.000000	 79.155000  
431.000000	 79.810000  
430.000000	 80.328000  
429.000000	 80.660000  
428.000000	 81.198000  
427.000000	 81.496000  
426.000000	 81.942000  
425.000000	 82.336000  
424.000000	 82.892000  
423.000000	 83.057999  
422.000000	 83.596999  
421.000000	 84.126000  
420.000000	 84.651000  
419.000000	 85.185000  
418.000000	 85.362000  
417.000000	 85.824999  
416.000000	 86.339999  
415.000000	 86.558000  
414.000000	 86.831999  
413.000000	 87.361999  
412.000000	 87.848000  
411.000000	 88.044000  
410.000000	 88.266000  
409.000000	 88.548000  
408.000000	 89.164000  
407.000000	 89.736999  
406.000000	 89.931000  
405.000000	 89.866999  
404.000000	 90.581999  
403.000000	 90.858999  
402.000000	 91.679999  
401.000000	 92.294000  
400.000000	 92.407000  
399.000000	 92.012000  
398.000000	 92.652000  
397.000000	 93.628999  
396.000000	 93.510000  
395.000000	 93.777000  
394.000000	 93.973000  
393.000000	 93.937000  
392.000000	 94.611000  
391.000000	 95.076000  
390.000000	 95.800000  
389.000000	 95.957000  
388.000000	 96.170000  
387.000000	 96.528000  
386.000000	 95.964000  
385.000000	 96.167999  
384.000000	 96.387000  
383.000000	 97.387000  
382.000000	 97.181000  
381.000000	 97.326000  
380.000000	 98.340999  
379.000000	 99.047000  
378.000000	 98.712000  
377.000000	 99.270000  
376.000000	 98.471000  
375.000000	 98.928000  
374.000000	 99.402000  
373.000000	 99.468999  
372.000000	 99.544999  
371.000000	 99.185000  
370.000000	 99.610000  
369.000000	 99.702000  
368.000000	 99.741000  
367.000000	 99.468999  
366.000000	 99.652000  
365.000000	 99.617000  
364.000000	 100.263000 
363.000000	 100.059000 
362.000000	 99.855999  
361.000000	 99.947000  
360.000000	 100.641000 
359.000000	 99.959000  
358.000000	 99.601000  
357.000000	 99.626000  
356.000000	 99.972000  
355.000000	 100.973000 
354.000000	 100.409000 
353.000000	 100.120000 
352.000000	 100.475000 
351.000000	 100.249000 
350.000000	 99.532000  
349.000000	 100.077000 
348.000000	 99.955000  
347.000000	 101.018000 
346.000000	 100.888000 
345.000000	 100.884000 
344.000000	 100.242000 
343.000000	 100.504000 
342.000000	 101.196000 
341.000000	 101.003000 
340.000000	 100.587000 
339.000000	 100.128000 
338.000000	 100.322000 
337.000000	 100.980000 
336.000000	 100.302000 
335.000000	 100.259000 
334.000000	 100.180000 
333.000000	 100.331000 
332.000000	 100.266000 
331.000000	 100.849000 
330.000000	 100.547000 
329.000000	 101.252000 
328.000000	 101.222000 
327.000000	 100.778000 
326.000000	 100.893000 
325.000000	 100.123000 
324.000000	 100.276000 
323.000000	 100.469000 
322.000000	 99.934000  
321.000000	 99.546000  
320.000000	 99.777000  
319.000000	 99.413000  
318.000000	 98.703000  
317.000000	 98.873000  
316.000000	 99.107999  
315.000000	 98.606000  
314.000000	 98.473999  
313.000000	 98.523000  
312.000000	 97.763000  
311.000000	 97.717000  
310.000000	 97.548999  
309.000000	 97.151000  
308.000000	 97.416000  
307.000000	 96.647000  
306.000000	 96.137000  
305.000000	 96.059000  
304.000000	 95.813000  
303.000000	 95.762000  
302.000000	 95.001000  
301.000000	 94.465000  
300.000000	 94.361999  
299.000000	 94.128000  
298.000000	 93.768000  
297.000000	 93.486999  
296.000000	 92.863000  
295.000000	 92.515999  
294.000000	 92.024000  
293.000000	 92.318000  
292.000000	 91.695000  
291.000000	 91.170000  
290.000000	 90.387000  
289.000000	 90.095000  
288.000000	 89.539000  
287.000000	 88.387000  
286.000000	 87.973000  
285.000000	 87.810999  
284.000000	 87.360000  
283.000000	 87.233999  
282.000000	 86.851000  
281.000000	 86.162000  
280.000000	 85.598000  
279.000000	 84.530000  
278.000000	 83.685000  
277.000000	 82.791000  
276.000000	 82.199000  
275.000000	 82.336000  
274.000000	 81.786999  
273.000000	 80.619000  
272.000000	 79.779000  
271.000000	 78.910000  
270.000000	 78.211000  
269.000000	 77.266000  
268.000000	 76.604000  
267.000000	 75.676000  
266.000000	 74.611999  
265.000000	 74.098000  
264.000000	 72.758000  
263.000000	 71.976000  
262.000000	 70.956000  
261.000000	 70.298000  
260.000000	 69.429000  
259.000000	 67.896999  
258.000000	 67.237000  
257.000000	 66.352999  
256.000000	 66.029000  
255.000000	 64.920000  
254.000000	 64.476000  
253.000000	 63.456999  
252.000000	 62.340000  
251.000000	 62.100999  
250.000000	 61.677000  
249.000000	 61.354000  
248.000000	 61.049000  
247.000000	 60.968999  
246.000000	 60.829000  
245.000000	 60.519000  
244.000000	 60.638000  
243.000000	 60.683000  
242.000000	 60.524000  
241.000000	 60.837000  
240.000000	 61.460000  
239.000000	 61.978999  
238.000000	 62.044000  
237.000000	 62.948000  
236.000000	 64.316000  
235.000000	 65.205000  
234.000000	 65.852999  
233.000000	 66.859000  
232.000000	 68.623000  
231.000000	 70.042000  
230.000000	 71.992000  
229.000000	 73.571000  
228.000000	 74.655000  
227.000000	 76.754000  
226.000000	 78.434000  
225.000000	 79.324000  
224.000000	 80.113999  
223.000000	 81.690000  
222.000000	 83.068000  
221.000000	 85.845000  
220.000000	 88.024999  
219.000000	 88.492000  
218.000000	 90.511000  
217.000000	 91.839000  
216.000000	 93.538000  
215.000000	 94.193000  
214.000000	 94.769000  
213.000000	 95.524000  
212.000000	 99.435000  
211.000000	 98.392000  
210.000000	 97.167000  
209.000000	 100.599000 
208.000000	 100.226000 
207.000000	 96.515000  
206.000000	 98.818000  
205.000000	 102.154000 
204.000000	 99.777000  
203.000000	 107.501000 
202.000000	 107.034000 
201.000000	 104.536000 
200.000000	 106.402000 
199.000000	 95.248000  
198.000000	 95.296000  
197.000000	 96.258000  
196.000000	 103.143000 
195.000000	 95.048999  
194.000000	 93.958000  
193.000000	 119.857000 
192.000000	 97.248000  
191.000000	 51.098000  
190.000000	 34.474000  

