PE UV                   SPECTRUM    ASCII       PEDS        1.60        
  -1
S19_02.SP
12/04/05
07:39:43.00
12/04/05
07:54:05.00


190.000000
1









4444

SCAN
1
1


0.0
1920.0
2.00
MANUAL



UV/VIS




































#HDR
-1
-1
#GR
NM
%R
0.00002384185791015625
0.0
1000.000000
1.000000
811
8
174.607000
27.908000
#DATA
1000.000000	49.944000  
999.000000	 49.860000  
998.000000	 49.871000  
997.000000	 49.862000  
996.000000	 49.721000  
995.000000	 49.715000  
994.000000	 49.284000  
993.000000	 49.251000  
992.000000	 48.923000  
991.000000	 49.318000  
990.000000	 49.147000  
989.000000	 49.005000  
988.000000	 49.027000  
987.000000	 49.026000  
986.000000	 48.843000  
985.000000	 48.181000  
984.000000	 48.236000  
983.000000	 48.380000  
982.000000	 48.377000  
981.000000	 48.167000  
980.000000	 48.225000  
979.000000	 48.209000  
978.000000	 48.011000  
977.000000	 48.046000  
976.000000	 47.968000  
975.000000	 47.850000  
974.000000	 47.691000  
973.000000	 47.277000  
972.000000	 47.474000  
971.000000	 47.720000  
970.000000	 47.491000  
969.000000	 47.723000  
968.000000	 47.459000  
967.000000	 47.336000  
966.000000	 47.187000  
965.000000	 47.002000  
964.000000	 46.700000  
963.000000	 47.183000  
962.000000	 47.226000  
961.000000	 47.067000  
960.000000	 46.599000  
959.000000	 46.422999  
958.000000	 46.228000  
957.000000	 46.317000  
956.000000	 46.270000  
955.000000	 46.438000  
954.000000	 46.340000  
953.000000	 46.111000  
952.000000	 46.289000  
951.000000	 45.904000  
950.000000	 45.699000  
949.000000	 45.580000  
948.000000	 45.659000  
947.000000	 45.534000  
946.000000	 45.717000  
945.000000	 45.529000  
944.000000	 45.428000  
943.000000	 45.359000  
942.000000	 45.170000  
941.000000	 45.214000  
940.000000	 44.944000  
939.000000	 44.693000  
938.000000	 44.646000  
937.000000	 44.671000  
936.000000	 44.882000  
935.000000	 44.685000  
934.000000	 44.561000  
933.000000	 44.499000  
932.000000	 44.539000  
931.000000	 44.407999  
930.000000	 44.252000  
929.000000	 44.156000  
928.000000	 44.096999  
927.000000	 44.016000  
926.000000	 44.068000  
925.000000	 44.075000  
924.000000	 43.762000  
923.000000	 43.744000  
922.000000	 43.673000  
921.000000	 43.436000  
920.000000	 43.455000  
919.000000	 43.489000  
918.000000	 43.306000  
917.000000	 43.140000  
916.000000	 43.181000  
915.000000	 43.128000  
914.000000	 42.869000  
913.000000	 42.779000  
912.000000	 42.762000  
911.000000	 42.647000  
910.000000	 42.326000  
909.000000	 42.616000  
908.000000	 42.604000  
907.000000	 42.437000  
906.000000	 42.004000  
905.000000	 41.966000  
904.000000	 41.744000  
903.000000	 42.168000  
902.000000	 42.116000  
901.000000	 42.085000  
900.000000	 41.980000  
899.000000	 41.735000  
898.000000	 41.757000  
897.000000	 41.669000  
896.000000	 41.151000  
895.000000	 41.172000  
894.000000	 41.327000  
893.000000	 41.205000  
892.000000	 41.185000  
891.000000	 41.086000  
890.000000	 41.032999  
889.000000	 41.049000  
888.000000	 41.049000  
887.000000	 40.765000  
886.000000	 40.584000  
885.000000	 40.469000  
884.000000	 40.232000  
883.000000	 40.426000  
882.000000	 40.193000  
881.000000	 40.454000  
880.000000	 40.634000  
879.000000	 40.060000  
878.000000	 39.952000  
877.000000	 39.974000  
876.000000	 40.135000  
875.000000	 40.078000  
874.000000	 39.571000  
873.000000	 39.673000  
872.000000	 39.867000  
871.000000	 39.072000  
870.000000	 39.287000  
869.000000	 39.386000  
868.000000	 39.038000  
867.000000	 39.533000  
866.000000	 39.485000  
865.000000	 39.157000  
864.000000	 39.082000  
863.000000	 38.652000  
862.000000	 39.069000  
861.000000	 38.559000  
860.000000	 38.340000  
859.000000	 37.904000  
858.000000	 38.203000  
857.000000	 38.405000  
856.000000	 38.770000  
855.000000	 38.074000  
854.000000	 37.904000  
853.000000	 37.755000  
852.000000	 37.446000  
851.000000	 37.492999  
850.000000	 37.444000  
849.000000	 37.348000  
848.000000	 37.417000  
847.000000	 37.425000  
846.000000	 37.423000  
845.000000	 37.672000  
844.000000	 37.300000  
843.000000	 36.842000  
842.000000	 37.138000  
841.000000	 37.177000  
840.000000	 36.822000  
839.000000	 37.016000  
838.000000	 37.004000  
837.000000	 36.772000  
836.000000	 36.303999  
835.000000	 36.510000  
834.000000	 35.958000  
833.000000	 36.420000  
832.000000	 36.165000  
831.000000	 36.207000  
830.000000	 36.146000  
829.000000	 35.896000  
828.000000	 36.103000  
827.000000	 36.031000  
826.000000	 35.938000  
825.000000	 35.821000  
824.000000	 35.304000  
823.000000	 35.504000  
822.000000	 35.843000  
821.000000	 35.340000  
820.000000	 35.501000  
819.000000	 35.361000  
818.000000	 34.989000  
817.000000	 34.674000  
816.000000	 34.955000  
815.000000	 34.748000  
814.000000	 34.732000  
813.000000	 34.842000  
812.000000	 34.876000  
811.000000	 34.579000  
810.000000	 34.406000  
809.000000	 34.148000  
808.000000	 34.136000  
807.000000	 34.082000  
806.000000	 34.298000  
805.000000	 34.291000  
804.000000	 34.049000  
803.000000	 33.867000  
802.000000	 33.828000  
801.000000	 33.651000  
800.000000	 33.474000  
799.000000	 33.458000  
798.000000	 33.347000  
797.000000	 33.367999  
796.000000	 33.729000  
795.000000	 33.419000  
794.000000	 33.196000  
793.000000	 33.174000  
792.000000	 33.201000  
791.000000	 32.938000  
790.000000	 32.948000  
789.000000	 32.932000  
788.000000	 32.705000  
787.000000	 32.875000  
786.000000	 32.745000  
785.000000	 32.993000  
784.000000	 32.472000  
783.000000	 32.614000  
782.000000	 32.619000  
781.000000	 32.395000  
780.000000	 32.071000  
779.000000	 32.501000  
778.000000	 32.535000  
777.000000	 32.169000  
776.000000	 31.998000  
775.000000	 31.994000  
774.000000	 31.877000  
773.000000	 31.664000  
772.000000	 31.585000  
771.000000	 31.651000  
770.000000	 31.707000  
769.000000	 31.664000  
768.000000	 31.261000  
767.000000	 31.310000  
766.000000	 31.355000  
765.000000	 31.241000  
764.000000	 31.203000  
763.000000	 31.081000  
762.000000	 31.023000  
761.000000	 31.103000  
760.000000	 30.913000  
759.000000	 30.910000  
758.000000	 30.973000  
757.000000	 30.728000  
756.000000	 30.754000  
755.000000	 30.688000  
754.000000	 30.590000  
753.000000	 30.576000  
752.000000	 30.536000  
751.000000	 30.377000  
750.000000	 30.323000  
749.000000	 30.387000  
748.000000	 30.272000  
747.000000	 30.242000  
746.000000	 30.167000  
745.000000	 30.227000  
744.000000	 30.106000  
743.000000	 30.138000  
742.000000	 30.178000  
741.000000	 30.127000  
740.000000	 30.035000  
739.000000	 29.836000  
738.000000	 29.658000  
737.000000	 29.719000  
736.000000	 29.755000  
735.000000	 29.764000  
734.000000	 29.696000  
733.000000	 29.578000  
732.000000	 29.467000  
731.000000	 29.319000  
730.000000	 29.305000  
729.000000	 29.305000  
728.000000	 29.259000  
727.000000	 29.278000  
726.000000	 29.278000  
725.000000	 29.353000  
724.000000	 29.233000  
723.000000	 29.132000  
722.000000	 29.054000  
721.000000	 29.041000  
720.000000	 28.983000  
719.000000	 28.892000  
718.000000	 28.886000  
717.000000	 28.834000  
716.000000	 28.858000  
715.000000	 28.791000  
714.000000	 28.667000  
713.000000	 28.666000  
712.000000	 28.686000  
711.000000	 28.547000  
710.000000	 28.486000  
709.000000	 28.509000  
708.000000	 28.706000  
707.000000	 28.570000  
706.000000	 28.524000  
705.000000	 28.510000  
704.000000	 28.415000  
703.000000	 28.538000  
702.000000	 28.499000  
701.000000	 28.288000  
700.000000	 28.267000  
699.000000	 28.281000  
698.000000	 28.306000  
697.000000	 28.198000  
696.000000	 28.186000  
695.000000	 28.124000  
694.000000	 28.105000  
693.000000	 28.153000  
692.000000	 28.156000  
691.000000	 28.171000  
690.000000	 28.219000  
689.000000	 28.338000  
688.000000	 28.259000  
687.000000	 28.053000  
686.000000	 28.061000  
685.000000	 28.023000  
684.000000	 27.939000  
683.000000	 27.981000  
682.000000	 28.003000  
681.000000	 27.975000  
680.000000	 27.957000  
679.000000	 27.974000  
678.000000	 28.016000  
677.000000	 28.006000  
676.000000	 27.908000  
675.000000	 28.067000  
674.000000	 28.169000  
673.000000	 28.193000  
672.000000	 28.106000  
671.000000	 28.065000  
670.000000	 28.128000  
669.000000	 28.325000  
668.000000	 28.225000  
667.000000	 28.252000  
666.000000	 28.126000  
665.000000	 28.114000  
664.000000	 28.053000  
663.000000	 27.979000  
662.000000	 28.136000  
661.000000	 28.225000  
660.000000	 28.412000  
659.000000	 28.359000  
658.000000	 28.448000  
657.000000	 28.286000  
656.000000	 28.210000  
655.000000	 28.147000  
654.000000	 28.100000  
653.000000	 28.249000  
652.000000	 28.407000  
651.000000	 28.300000  
650.000000	 28.484000  
649.000000	 28.567000  
648.000000	 28.645000  
647.000000	 28.498000  
646.000000	 28.439000  
645.000000	 28.515000  
644.000000	 28.670000  
643.000000	 28.753000  
642.000000	 28.812000  
641.000000	 28.878000  
640.000000	 28.890000  
639.000000	 28.848000  
638.000000	 28.927000  
637.000000	 28.911000  
636.000000	 28.987000  
635.000000	 29.110000  
634.000000	 29.140000  
633.000000	 29.224000  
632.000000	 29.264000  
631.000000	 29.366000  
630.000000	 29.395000  
629.000000	 29.444000  
628.000000	 29.444000  
627.000000	 29.598000  
626.000000	 29.712000  
625.000000	 29.703000  
624.000000	 29.760000  
623.000000	 29.824000  
622.000000	 29.881000  
621.000000	 29.935000  
620.000000	 29.909000  
619.000000	 30.106000  
618.000000	 30.227000  
617.000000	 30.325000  
616.000000	 30.422000  
615.000000	 30.423000  
614.000000	 30.585000  
613.000000	 30.602000  
612.000000	 30.762000  
611.000000	 30.717000  
610.000000	 30.961000  
609.000000	 30.984000  
608.000000	 31.169000  
607.000000	 31.283000  
606.000000	 31.415000  
605.000000	 31.477000  
604.000000	 31.517000  
603.000000	 31.684000  
602.000000	 31.771000  
601.000000	 31.837000  
600.000000	 32.147000  
599.000000	 32.251000  
598.000000	 32.270000  
597.000000	 32.480000  
596.000000	 32.574000  
595.000000	 32.629000  
594.000000	 32.759000  
593.000000	 32.960000  
592.000000	 33.117000  
591.000000	 33.220000  
590.000000	 33.335000  
589.000000	 33.409000  
588.000000	 33.563000  
587.000000	 33.732000  
586.000000	 33.840000  
585.000000	 33.983999  
584.000000	 34.160000  
583.000000	 34.309000  
582.000000	 34.475000  
581.000000	 34.602000  
580.000000	 34.723000  
579.000000	 34.936000  
578.000000	 35.118000  
577.000000	 35.242000  
576.000000	 35.363000  
575.000000	 35.479000  
574.000000	 35.747000  
573.000000	 35.988000  
572.000000	 36.082000  
571.000000	 36.236000  
570.000000	 36.467000  
569.000000	 36.646000  
568.000000	 36.963000  
567.000000	 36.986999  
566.000000	 37.108000  
565.000000	 37.410000  
564.000000	 37.541000  
563.000000	 37.738000  
562.000000	 37.968000  
561.000000	 38.166000  
560.000000	 38.374000  
559.000000	 38.526000  
558.000000	 38.751000  
557.000000	 38.981000  
556.000000	 39.221000  
555.000000	 39.415000  
554.000000	 39.717000  
553.000000	 39.922999  
552.000000	 40.146000  
551.000000	 40.344000  
550.000000	 40.522000  
549.000000	 40.771000  
548.000000	 41.038999  
547.000000	 41.332000  
546.000000	 41.593999  
545.000000	 41.830000  
544.000000	 42.095000  
543.000000	 42.286000  
542.000000	 42.521000  
541.000000	 42.755000  
540.000000	 42.947000  
539.000000	 43.252000  
538.000000	 43.556000  
537.000000	 43.699000  
536.000000	 44.041999  
535.000000	 44.233000  
534.000000	 44.451000  
533.000000	 44.725000  
532.000000	 45.069000  
531.000000	 45.389000  
530.000000	 45.688000  
529.000000	 45.934000  
528.000000	 46.131000  
527.000000	 46.534000  
526.000000	 46.850000  
525.000000	 47.158000  
524.000000	 47.358000  
523.000000	 47.778000  
522.000000	 48.014000  
521.000000	 48.198000  
520.000000	 48.472000  
519.000000	 48.755000  
518.000000	 49.100000  
517.000000	 49.456000  
516.000000	 49.720000  
515.000000	 50.078999  
514.000000	 50.456000  
513.000000	 50.733000  
512.000000	 51.081000  
511.000000	 51.363000  
510.000000	 51.640000  
509.000000	 51.966000  
508.000000	 52.268000  
507.000000	 52.612000  
506.000000	 52.959999  
505.000000	 53.302000  
504.000000	 53.654000  
503.000000	 53.976000  
502.000000	 54.275000  
501.000000	 54.496000  
500.000000	 54.808000  
499.000000	 55.129000  
498.000000	 55.445000  
497.000000	 55.852000  
496.000000	 56.265000  
495.000000	 56.645000  
494.000000	 56.957000  
493.000000	 57.391000  
492.000000	 57.948000  
491.000000	 58.249000  
490.000000	 58.482000  
489.000000	 58.776000  
488.000000	 59.268000  
487.000000	 59.480999  
486.000000	 59.929000  
485.000000	 60.346000  
484.000000	 60.579000  
483.000000	 61.077000  
482.000000	 61.528000  
481.000000	 61.773000  
480.000000	 61.982000  
479.000000	 62.474000  
478.000000	 63.032999  
477.000000	 63.322000  
476.000000	 63.710000  
475.000000	 64.061000  
474.000000	 64.275000  
473.000000	 64.554999  
472.000000	 65.022000  
471.000000	 65.489000  
470.000000	 65.959999  
469.000000	 66.408999  
468.000000	 66.827000  
467.000000	 67.078999  
466.000000	 67.525000  
465.000000	 67.911999  
464.000000	 68.203999  
463.000000	 68.506999  
462.000000	 68.855999  
461.000000	 69.330000  
460.000000	 69.702000  
459.000000	 70.083000  
458.000000	 70.639000  
457.000000	 70.981000  
456.000000	 71.265999  
455.000000	 71.828999  
454.000000	 72.190000  
453.000000	 72.566000  
452.000000	 72.894000  
451.000000	 73.230999  
450.000000	 73.728000  
449.000000	 74.087999  
448.000000	 74.715000  
447.000000	 75.009000  
446.000000	 75.464000  
445.000000	 75.941000  
444.000000	 75.961999  
443.000000	 76.432999  
442.000000	 76.913000  
441.000000	 77.485000  
440.000000	 78.066999  
439.000000	 78.408000  
438.000000	 78.627000  
437.000000	 79.027999  
436.000000	 79.488000  
435.000000	 79.950000  
434.000000	 80.375000  
433.000000	 80.633000  
432.000000	 81.244000  
431.000000	 81.321000  
430.000000	 81.596999  
429.000000	 82.152999  
428.000000	 82.509999  
427.000000	 83.099999  
426.000000	 83.334000  
425.000000	 83.839000  
424.000000	 84.244000  
423.000000	 84.556000  
422.000000	 85.264000  
421.000000	 85.533000  
420.000000	 85.524000  
419.000000	 86.182000  
418.000000	 86.515000  
417.000000	 86.880000  
416.000000	 87.212000  
415.000000	 87.482000  
414.000000	 88.034000  
413.000000	 88.321000  
412.000000	 88.358000  
411.000000	 89.072000  
410.000000	 89.659000  
409.000000	 89.932000  
408.000000	 90.298000  
407.000000	 90.452000  
406.000000	 90.633000  
405.000000	 91.149000  
404.000000	 91.515000  
403.000000	 91.593999  
402.000000	 92.140999  
401.000000	 92.417000  
400.000000	 92.981000  
399.000000	 93.319000  
398.000000	 93.318000  
397.000000	 93.762000  
396.000000	 94.720000  
395.000000	 94.521999  
394.000000	 95.470000  
393.000000	 95.203999  
392.000000	 95.027000  
391.000000	 94.643000  
390.000000	 95.343999  
389.000000	 96.630000  
388.000000	 95.950999  
387.000000	 96.161000  
386.000000	 96.883000  
385.000000	 97.494000  
384.000000	 97.224000  
383.000000	 97.509000  
382.000000	 97.922000  
381.000000	 97.661000  
380.000000	 98.541000  
379.000000	 98.471000  
378.000000	 98.583000  
377.000000	 98.704000  
376.000000	 98.521999  
375.000000	 98.936000  
374.000000	 98.905000  
373.000000	 98.885000  
372.000000	 99.709000  
371.000000	 99.869000  
370.000000	 99.652000  
369.000000	 99.956000  
368.000000	 99.578000  
367.000000	 99.506000  
366.000000	 99.849000  
365.000000	 99.914999  
364.000000	 99.407000  
363.000000	 99.496000  
362.000000	 99.944999  
361.000000	 100.008000 
360.000000	 99.739999  
359.000000	 99.334999  
358.000000	 99.592000  
357.000000	 99.386000  
356.000000	 99.205000  
355.000000	 99.885000  
354.000000	 99.607999  
353.000000	 100.026000 
352.000000	 99.355000  
351.000000	 100.594000 
350.000000	 99.358999  
349.000000	 99.083000  
348.000000	 100.737000 
347.000000	 101.509000 
346.000000	 101.156000 
345.000000	 101.175000 
344.000000	 99.838000  
343.000000	 99.175000  
342.000000	 99.819999  
341.000000	 100.804000 
340.000000	 100.573000 
339.000000	 99.604000  
338.000000	 100.696000 
337.000000	 100.966000 
336.000000	 101.151000 
335.000000	 100.098000 
334.000000	 99.741000  
333.000000	 100.038000 
332.000000	 99.520000  
331.000000	 100.897000 
330.000000	 100.783000 
329.000000	 99.833000  
328.000000	 98.762000  
327.000000	 99.875000  
326.000000	 99.381000  
325.000000	 99.039999  
324.000000	 99.051000  
323.000000	 98.718999  
322.000000	 98.309000  
321.000000	 98.858000  
320.000000	 98.690000  
319.000000	 98.392000  
318.000000	 98.472000  
317.000000	 98.087000  
316.000000	 97.267000  
315.000000	 97.110000  
314.000000	 97.269000  
313.000000	 96.955000  
312.000000	 96.714999  
311.000000	 96.626000  
310.000000	 95.889000  
309.000000	 96.186000  
308.000000	 95.078000  
307.000000	 95.087999  
306.000000	 94.864000  
305.000000	 94.548000  
304.000000	 94.377000  
303.000000	 93.310000  
302.000000	 93.209000  
301.000000	 92.643000  
300.000000	 92.636000  
299.000000	 91.786000  
298.000000	 91.798000  
297.000000	 91.636000  
296.000000	 91.242999  
295.000000	 90.989000  
294.000000	 90.479000  
293.000000	 89.807000  
292.000000	 89.569000  
291.000000	 89.354999  
290.000000	 88.752000  
289.000000	 88.447000  
288.000000	 87.886000  
287.000000	 87.441999  
286.000000	 86.807000  
285.000000	 86.182000  
284.000000	 85.610000  
283.000000	 85.301000  
282.000000	 84.902999  
281.000000	 84.364999  
280.000000	 83.636000  
279.000000	 83.369000  
278.000000	 82.728000  
277.000000	 82.088000  
276.000000	 81.540000  
275.000000	 80.361000  
274.000000	 79.918000  
273.000000	 79.120000  
272.000000	 77.873000  
271.000000	 77.360000  
270.000000	 76.724999  
269.000000	 76.002000  
268.000000	 74.826000  
267.000000	 73.936000  
266.000000	 73.429999  
265.000000	 72.559000  
264.000000	 71.342000  
263.000000	 70.387999  
262.000000	 69.828999  
261.000000	 69.208000  
260.000000	 67.536000  
259.000000	 67.172000  
258.000000	 66.573000  
257.000000	 65.608999  
256.000000	 64.878999  
255.000000	 64.411000  
254.000000	 63.822000  
253.000000	 63.212999  
252.000000	 62.790000  
251.000000	 61.875000  
250.000000	 61.750000  
249.000000	 61.917999  
248.000000	 61.596000  
247.000000	 61.414000  
246.000000	 61.678999  
245.000000	 61.816000  
244.000000	 61.888000  
243.000000	 61.996000  
242.000000	 62.227000  
241.000000	 62.760000  
240.000000	 63.406000  
239.000000	 64.119000  
238.000000	 65.234000  
237.000000	 66.141000  
236.000000	 66.889000  
235.000000	 68.029000  
234.000000	 69.013000  
233.000000	 70.170999  
232.000000	 71.836999  
231.000000	 73.071000  
230.000000	 74.428000  
229.000000	 76.417999  
228.000000	 77.377000  
227.000000	 79.357999  
226.000000	 81.157000  
225.000000	 83.036000  
224.000000	 84.860000  
223.000000	 85.300000  
222.000000	 87.207000  
221.000000	 88.589000  
220.000000	 89.021000  
219.000000	 91.015999  
218.000000	 92.300000  
217.000000	 92.065000  
216.000000	 93.941000  
215.000000	 96.996000  
214.000000	 98.197999  
213.000000	 100.331000 
212.000000	 98.745000  
211.000000	 98.199000  
210.000000	 100.138000 
209.000000	 101.304000 
208.000000	 99.016000  
207.000000	 100.833000 
206.000000	 106.971000 
205.000000	 104.274000 
204.000000	 106.012000 
203.000000	 105.332000 
202.000000	 94.872000  
201.000000	 101.967000 
200.000000	 105.801000 
199.000000	 102.243000 
198.000000	 115.211000 
197.000000	 111.838000 
196.000000	 86.104000  
195.000000	 94.550000  
194.000000	 98.933000  
193.000000	 99.677000  
192.000000	 99.987000  
191.000000	 101.441000 
190.000000	 174.607000 

