PE UV                   SPECTRUM    ASCII       PEDS        1.60        
  -1
S19_01.SP
12/04/05
07:37:33.00
12/04/05
07:54:05.00


190.000000
1









4444

SCAN
1
1


0.0
1920.0
2.00
MANUAL



UV/VIS




































#HDR
-1
-1
#GR
NM
%R
0.00002384185791015625
0.0
1000.000000
1.000000
811
8
112.660000
25.554000
#DATA
1000.000000	49.401000  
999.000000	 49.113000  
998.000000	 48.594000  
997.000000	 48.226000  
996.000000	 48.856000  
995.000000	 48.877000  
994.000000	 48.509000  
993.000000	 47.921000  
992.000000	 47.463000  
991.000000	 47.760000  
990.000000	 47.593999  
989.000000	 47.705000  
988.000000	 47.949000  
987.000000	 48.095000  
986.000000	 47.826000  
985.000000	 47.526000  
984.000000	 47.412000  
983.000000	 47.288999  
982.000000	 47.355999  
981.000000	 47.199000  
980.000000	 47.149000  
979.000000	 47.044999  
978.000000	 46.977000  
977.000000	 46.854000  
976.000000	 46.819000  
975.000000	 46.549000  
974.000000	 46.783000  
973.000000	 47.017000  
972.000000	 46.863000  
971.000000	 46.664000  
970.000000	 46.150000  
969.000000	 46.079000  
968.000000	 46.214000  
967.000000	 45.636000  
966.000000	 45.652000  
965.000000	 45.554000  
964.000000	 45.527000  
963.000000	 45.832000  
962.000000	 45.650000  
961.000000	 45.351000  
960.000000	 45.078000  
959.000000	 45.128000  
958.000000	 45.272000  
957.000000	 45.088000  
956.000000	 45.145000  
955.000000	 44.921000  
954.000000	 44.775000  
953.000000	 45.002000  
952.000000	 44.830000  
951.000000	 44.789000  
950.000000	 44.777000  
949.000000	 44.539000  
948.000000	 44.176000  
947.000000	 44.321000  
946.000000	 44.416000  
945.000000	 44.358000  
944.000000	 44.287000  
943.000000	 44.021000  
942.000000	 43.879000  
941.000000	 43.673000  
940.000000	 43.696000  
939.000000	 43.602999  
938.000000	 43.449000  
937.000000	 43.422000  
936.000000	 43.425999  
935.000000	 43.284000  
934.000000	 43.174000  
933.000000	 43.193000  
932.000000	 42.913000  
931.000000	 42.703000  
930.000000	 42.637000  
929.000000	 42.742000  
928.000000	 42.641000  
927.000000	 42.593000  
926.000000	 42.437000  
925.000000	 42.480000  
924.000000	 42.310000  
923.000000	 42.008000  
922.000000	 42.018000  
921.000000	 42.031000  
920.000000	 41.953000  
919.000000	 42.021000  
918.000000	 41.990000  
917.000000	 41.826000  
916.000000	 41.555000  
915.000000	 41.574000  
914.000000	 41.431000  
913.000000	 41.423000  
912.000000	 41.155000  
911.000000	 41.046000  
910.000000	 41.236000  
909.000000	 40.836000  
908.000000	 40.954000  
907.000000	 40.835000  
906.000000	 40.865000  
905.000000	 40.890000  
904.000000	 40.463000  
903.000000	 40.811000  
902.000000	 40.915000  
901.000000	 40.532000  
900.000000	 40.347000  
899.000000	 40.430000  
898.000000	 40.231000  
897.000000	 40.067000  
896.000000	 39.612000  
895.000000	 39.660000  
894.000000	 39.617000  
893.000000	 39.586000  
892.000000	 39.672000  
891.000000	 39.378000  
890.000000	 39.448000  
889.000000	 39.516000  
888.000000	 39.461000  
887.000000	 38.879000  
886.000000	 38.834999  
885.000000	 39.173000  
884.000000	 39.003000  
883.000000	 38.676000  
882.000000	 38.874000  
881.000000	 38.699000  
880.000000	 38.568000  
879.000000	 38.304000  
878.000000	 38.807000  
877.000000	 38.381000  
876.000000	 38.475000  
875.000000	 38.631000  
874.000000	 38.316000  
873.000000	 38.571000  
872.000000	 38.250000  
871.000000	 38.706000  
870.000000	 37.566000  
869.000000	 37.700000  
868.000000	 37.683000  
867.000000	 37.763000  
866.000000	 37.993000  
865.000000	 37.638000  
864.000000	 37.938000  
863.000000	 37.471000  
862.000000	 37.142000  
861.000000	 36.690000  
860.000000	 36.729000  
859.000000	 37.199000  
858.000000	 37.131000  
857.000000	 37.047999  
856.000000	 36.850000  
855.000000	 36.943000  
854.000000	 36.877000  
853.000000	 36.390000  
852.000000	 36.608000  
851.000000	 36.831000  
850.000000	 36.446000  
849.000000	 35.731000  
848.000000	 35.865000  
847.000000	 35.912000  
846.000000	 35.968000  
845.000000	 35.990000  
844.000000	 35.556000  
843.000000	 35.253000  
842.000000	 35.432000  
841.000000	 35.614000  
840.000000	 35.691000  
839.000000	 35.290000  
838.000000	 34.890000  
837.000000	 35.240000  
836.000000	 35.308000  
835.000000	 35.108000  
834.000000	 34.426000  
833.000000	 34.404000  
832.000000	 34.273000  
831.000000	 34.094000  
830.000000	 34.509000  
829.000000	 34.642000  
828.000000	 34.300999  
827.000000	 34.505000  
826.000000	 34.345000  
825.000000	 34.212000  
824.000000	 34.137000  
823.000000	 33.916000  
822.000000	 33.993000  
821.000000	 33.827000  
820.000000	 33.675000  
819.000000	 33.595000  
818.000000	 33.063000  
817.000000	 33.110000  
816.000000	 33.421000  
815.000000	 33.211000  
814.000000	 33.223000  
813.000000	 33.312000  
812.000000	 33.160000  
811.000000	 32.789000  
810.000000	 32.573000  
809.000000	 32.668000  
808.000000	 32.598000  
807.000000	 32.522000  
806.000000	 32.528000  
805.000000	 32.203000  
804.000000	 32.220000  
803.000000	 32.076000  
802.000000	 32.145000  
801.000000	 32.204000  
800.000000	 31.977000  
799.000000	 31.675000  
798.000000	 31.798000  
797.000000	 31.922000  
796.000000	 31.820000  
795.000000	 31.736000  
794.000000	 31.833000  
793.000000	 31.624000  
792.000000	 31.287000  
791.000000	 31.233000  
790.000000	 30.893000  
789.000000	 30.821000  
788.000000	 30.689000  
787.000000	 30.882000  
786.000000	 30.957000  
785.000000	 30.860000  
784.000000	 31.000000  
783.000000	 30.568000  
782.000000	 30.454000  
781.000000	 30.257000  
780.000000	 30.545000  
779.000000	 30.481000  
778.000000	 30.266000  
777.000000	 30.429000  
776.000000	 30.375000  
775.000000	 30.187000  
774.000000	 30.146000  
773.000000	 30.030000  
772.000000	 29.767000  
771.000000	 29.983000  
770.000000	 29.962000  
769.000000	 29.951000  
768.000000	 29.790000  
767.000000	 29.740000  
766.000000	 29.510000  
765.000000	 29.466000  
764.000000	 29.381000  
763.000000	 29.346000  
762.000000	 29.228000  
761.000000	 29.130000  
760.000000	 29.070000  
759.000000	 29.040000  
758.000000	 28.877000  
757.000000	 28.727000  
756.000000	 28.633000  
755.000000	 28.685000  
754.000000	 28.608000  
753.000000	 28.606000  
752.000000	 28.735000  
751.000000	 28.513000  
750.000000	 28.565000  
749.000000	 28.465000  
748.000000	 28.215000  
747.000000	 28.443000  
746.000000	 28.253000  
745.000000	 28.060000  
744.000000	 28.233000  
743.000000	 28.203000  
742.000000	 28.013000  
741.000000	 28.052000  
740.000000	 28.003000  
739.000000	 27.721000  
738.000000	 27.703000  
737.000000	 27.746000  
736.000000	 27.570000  
735.000000	 27.698000  
734.000000	 27.711000  
733.000000	 27.593000  
732.000000	 27.489000  
731.000000	 27.343000  
730.000000	 27.218000  
729.000000	 27.197000  
728.000000	 27.098000  
727.000000	 27.269000  
726.000000	 27.204000  
725.000000	 27.124000  
724.000000	 27.106000  
723.000000	 27.027000  
722.000000	 26.919000  
721.000000	 26.854000  
720.000000	 26.818000  
719.000000	 26.880000  
718.000000	 26.854000  
717.000000	 26.799000  
716.000000	 26.778000  
715.000000	 26.726000  
714.000000	 26.701000  
713.000000	 26.544000  
712.000000	 26.511000  
711.000000	 26.498000  
710.000000	 26.437000  
709.000000	 26.394000  
708.000000	 26.512000  
707.000000	 26.512000  
706.000000	 26.421000  
705.000000	 26.328000  
704.000000	 26.318000  
703.000000	 26.275000  
702.000000	 26.190000  
701.000000	 26.092000  
700.000000	 26.155000  
699.000000	 26.141000  
698.000000	 26.203000  
697.000000	 26.158000  
696.000000	 25.964000  
695.000000	 25.930000  
694.000000	 25.970000  
693.000000	 25.947000  
692.000000	 25.894000  
691.000000	 25.922000  
690.000000	 25.981000  
689.000000	 25.908000  
688.000000	 25.832000  
687.000000	 25.809000  
686.000000	 25.787000  
685.000000	 25.673000  
684.000000	 25.760000  
683.000000	 25.845000  
682.000000	 25.774000  
681.000000	 25.844000  
680.000000	 25.863000  
679.000000	 25.743000  
678.000000	 25.689000  
677.000000	 25.682000  
676.000000	 25.709000  
675.000000	 25.662000  
674.000000	 25.719000  
673.000000	 25.824000  
672.000000	 25.898000  
671.000000	 25.828000  
670.000000	 25.805000  
669.000000	 25.807000  
668.000000	 25.701000  
667.000000	 25.760000  
666.000000	 25.771000  
665.000000	 25.818000  
664.000000	 25.665000  
663.000000	 25.628000  
662.000000	 25.611000  
661.000000	 25.652000  
660.000000	 25.739000  
659.000000	 25.921000  
658.000000	 25.995000  
657.000000	 25.838000  
656.000000	 25.554000  
655.000000	 25.840000  
654.000000	 25.708000  
653.000000	 25.845000  
652.000000	 25.931000  
651.000000	 25.878000  
650.000000	 25.945000  
649.000000	 26.059000  
648.000000	 26.231000  
647.000000	 26.078000  
646.000000	 26.059000  
645.000000	 26.064000  
644.000000	 26.146000  
643.000000	 26.187000  
642.000000	 26.206000  
641.000000	 26.361000  
640.000000	 26.381000  
639.000000	 26.348000  
638.000000	 26.359000  
637.000000	 26.400000  
636.000000	 26.602000  
635.000000	 26.697000  
634.000000	 26.706000  
633.000000	 26.647000  
632.000000	 26.730000  
631.000000	 26.754000  
630.000000	 26.818000  
629.000000	 26.879000  
628.000000	 26.846000  
627.000000	 27.077000  
626.000000	 27.109000  
625.000000	 27.087000  
624.000000	 27.180000  
623.000000	 27.279000  
622.000000	 27.354000  
621.000000	 27.396000  
620.000000	 27.516000  
619.000000	 27.496000  
618.000000	 27.570000  
617.000000	 27.719000  
616.000000	 27.786000  
615.000000	 27.939000  
614.000000	 28.016000  
613.000000	 28.012000  
612.000000	 28.140000  
611.000000	 28.144000  
610.000000	 28.310000  
609.000000	 28.464000  
608.000000	 28.654000  
607.000000	 28.652000  
606.000000	 28.744000  
605.000000	 28.917000  
604.000000	 28.912000  
603.000000	 29.055000  
602.000000	 29.190000  
601.000000	 29.301000  
600.000000	 29.451000  
599.000000	 29.546000  
598.000000	 29.651000  
597.000000	 29.770000  
596.000000	 29.868000  
595.000000	 29.937000  
594.000000	 30.038000  
593.000000	 30.168000  
592.000000	 30.305000  
591.000000	 30.526000  
590.000000	 30.701000  
589.000000	 30.789000  
588.000000	 30.956000  
587.000000	 31.091000  
586.000000	 31.208000  
585.000000	 31.385000  
584.000000	 31.458000  
583.000000	 31.614000  
582.000000	 31.872000  
581.000000	 31.941000  
580.000000	 32.105000  
579.000000	 32.346000  
578.000000	 32.450000  
577.000000	 32.677000  
576.000000	 32.824000  
575.000000	 32.982000  
574.000000	 33.221000  
573.000000	 33.411000  
572.000000	 33.504000  
571.000000	 33.729000  
570.000000	 33.851000  
569.000000	 33.992000  
568.000000	 34.243000  
567.000000	 34.437000  
566.000000	 34.626000  
565.000000	 34.840000  
564.000000	 34.983000  
563.000000	 35.145000  
562.000000	 35.367000  
561.000000	 35.548000  
560.000000	 35.762000  
559.000000	 35.945000  
558.000000	 36.128000  
557.000000	 36.340000  
556.000000	 36.586000  
555.000000	 36.726000  
554.000000	 36.925999  
553.000000	 37.150000  
552.000000	 37.316000  
551.000000	 37.593000  
550.000000	 37.852999  
549.000000	 38.047000  
548.000000	 38.264000  
547.000000	 38.548000  
546.000000	 38.800000  
545.000000	 38.972000  
544.000000	 39.223000  
543.000000	 39.476000  
542.000000	 39.761000  
541.000000	 39.924000  
540.000000	 40.171000  
539.000000	 40.475000  
538.000000	 40.769000  
537.000000	 41.134000  
536.000000	 41.400000  
535.000000	 41.522000  
534.000000	 41.746000  
533.000000	 42.091000  
532.000000	 42.428000  
531.000000	 42.630000  
530.000000	 42.980000  
529.000000	 43.253000  
528.000000	 43.595000  
527.000000	 43.733000  
526.000000	 43.999000  
525.000000	 44.392000  
524.000000	 44.644000  
523.000000	 44.911000  
522.000000	 45.264000  
521.000000	 45.584000  
520.000000	 45.878000  
519.000000	 46.324000  
518.000000	 46.611999  
517.000000	 46.731000  
516.000000	 47.050000  
515.000000	 47.409000  
514.000000	 47.744000  
513.000000	 48.187000  
512.000000	 48.484000  
511.000000	 48.830000  
510.000000	 49.100000  
509.000000	 49.347000  
508.000000	 49.710000  
507.000000	 50.084000  
506.000000	 50.407000  
505.000000	 50.717000  
504.000000	 51.068000  
503.000000	 51.361000  
502.000000	 51.800999  
501.000000	 52.224000  
500.000000	 52.531000  
499.000000	 52.830000  
498.000000	 53.201000  
497.000000	 53.553000  
496.000000	 53.963000  
495.000000	 54.395000  
494.000000	 54.693000  
493.000000	 55.047999  
492.000000	 55.508000  
491.000000	 55.835000  
490.000000	 56.177000  
489.000000	 56.497000  
488.000000	 56.943000  
487.000000	 57.328000  
486.000000	 57.598000  
485.000000	 57.841000  
484.000000	 58.371000  
483.000000	 58.756000  
482.000000	 59.170999  
481.000000	 59.619000  
480.000000	 59.709000  
479.000000	 60.214000  
478.000000	 60.667000  
477.000000	 61.121000  
476.000000	 61.614000  
475.000000	 61.799000  
474.000000	 62.208000  
473.000000	 62.534000  
472.000000	 62.963000  
471.000000	 63.383999  
470.000000	 63.915000  
469.000000	 64.229000  
468.000000	 64.709000  
467.000000	 65.176000  
466.000000	 65.652999  
465.000000	 65.905000  
464.000000	 66.226000  
463.000000	 66.585000  
462.000000	 67.171000  
461.000000	 67.717000  
460.000000	 68.313000  
459.000000	 68.600000  
458.000000	 69.120000  
457.000000	 69.491000  
456.000000	 69.733000  
455.000000	 70.057999  
454.000000	 70.418000  
453.000000	 70.937000  
452.000000	 71.358000  
451.000000	 71.733000  
450.000000	 72.086000  
449.000000	 72.566000  
448.000000	 72.863999  
447.000000	 73.338000  
446.000000	 73.836000  
445.000000	 74.193000  
444.000000	 74.504000  
443.000000	 75.197000  
442.000000	 75.619000  
441.000000	 76.113000  
440.000000	 76.358999  
439.000000	 76.575000  
438.000000	 77.098000  
437.000000	 77.438000  
436.000000	 78.035000  
435.000000	 78.699000  
434.000000	 78.978000  
433.000000	 79.176000  
432.000000	 79.423999  
431.000000	 79.790000  
430.000000	 80.132000  
429.000000	 80.955999  
428.000000	 81.399000  
427.000000	 81.676000  
426.000000	 82.093000  
425.000000	 82.501000  
424.000000	 82.713000  
423.000000	 83.255000  
422.000000	 83.926000  
421.000000	 83.962000  
420.000000	 84.001000  
419.000000	 84.840000  
418.000000	 85.205000  
417.000000	 85.369000  
416.000000	 85.827000  
415.000000	 86.377000  
414.000000	 86.803000  
413.000000	 86.964000  
412.000000	 87.175000  
411.000000	 87.767000  
410.000000	 88.089000  
409.000000	 88.319000  
408.000000	 88.633000  
407.000000	 89.235000  
406.000000	 89.556000  
405.000000	 90.337999  
404.000000	 90.475000  
403.000000	 90.592000  
402.000000	 91.384000  
401.000000	 91.880000  
400.000000	 92.267000  
399.000000	 92.158000  
398.000000	 92.415000  
397.000000	 92.672000  
396.000000	 93.442000  
395.000000	 93.725000  
394.000000	 94.152000  
393.000000	 94.194999  
392.000000	 93.890000  
391.000000	 95.152000  
390.000000	 95.099999  
389.000000	 95.067000  
388.000000	 95.382000  
387.000000	 95.494999  
386.000000	 96.009000  
385.000000	 96.348999  
384.000000	 97.060000  
383.000000	 96.879000  
382.000000	 97.311000  
381.000000	 98.218000  
380.000000	 97.889000  
379.000000	 96.396000  
378.000000	 97.295000  
377.000000	 97.453999  
376.000000	 97.441999  
375.000000	 97.437000  
374.000000	 97.941999  
373.000000	 98.830000  
372.000000	 98.846999  
371.000000	 99.150000  
370.000000	 98.912000  
369.000000	 98.694000  
368.000000	 98.857000  
367.000000	 98.883000  
366.000000	 98.312999  
365.000000	 98.316000  
364.000000	 98.744000  
363.000000	 99.117999  
362.000000	 99.044000  
361.000000	 99.226000  
360.000000	 99.123000  
359.000000	 99.039000  
358.000000	 98.744000  
357.000000	 99.142000  
356.000000	 98.845000  
355.000000	 98.977000  
354.000000	 99.134999  
353.000000	 100.129000 
352.000000	 98.334000  
351.000000	 99.094000  
350.000000	 99.673999  
349.000000	 99.514000  
348.000000	 98.902000  
347.000000	 99.028000  
346.000000	 100.196000 
345.000000	 99.765000  
344.000000	 98.914999  
343.000000	 99.577000  
342.000000	 99.562000  
341.000000	 98.101000  
340.000000	 98.753999  
339.000000	 100.391000 
338.000000	 100.315000 
337.000000	 99.922000  
336.000000	 100.094000 
335.000000	 100.979000 
334.000000	 100.654000 
333.000000	 100.386000 
332.000000	 100.323000 
331.000000	 100.244000 
330.000000	 100.114000 
329.000000	 100.095000 
328.000000	 99.377000  
327.000000	 99.327000  
326.000000	 99.611000  
325.000000	 99.300000  
324.000000	 99.039999  
323.000000	 99.417999  
322.000000	 99.016000  
321.000000	 99.063000  
320.000000	 98.932000  
319.000000	 98.136000  
318.000000	 97.938999  
317.000000	 97.407000  
316.000000	 97.517000  
315.000000	 97.155999  
314.000000	 97.253999  
313.000000	 96.624000  
312.000000	 96.764000  
311.000000	 95.571000  
310.000000	 95.670000  
309.000000	 95.395000  
308.000000	 95.820000  
307.000000	 95.315000  
306.000000	 94.524000  
305.000000	 94.639000  
304.000000	 94.408999  
303.000000	 93.705000  
302.000000	 93.399000  
301.000000	 93.186000  
300.000000	 92.523000  
299.000000	 92.578000  
298.000000	 91.932000  
297.000000	 91.812000  
296.000000	 91.315000  
295.000000	 90.912000  
294.000000	 90.474000  
293.000000	 90.173999  
292.000000	 89.925999  
291.000000	 90.008000  
290.000000	 89.242999  
289.000000	 88.819999  
288.000000	 88.232000  
287.000000	 87.419000  
286.000000	 86.818000  
285.000000	 86.309000  
284.000000	 85.890999  
283.000000	 85.214000  
282.000000	 84.931000  
281.000000	 84.624000  
280.000000	 83.929000  
279.000000	 83.355000  
278.000000	 82.929000  
277.000000	 81.973000  
276.000000	 81.176000  
275.000000	 80.941000  
274.000000	 80.352000  
273.000000	 79.187000  
272.000000	 78.356000  
271.000000	 77.378000  
270.000000	 76.678000  
269.000000	 75.663000  
268.000000	 74.912000  
267.000000	 74.185000  
266.000000	 73.107999  
265.000000	 72.249000  
264.000000	 71.567000  
263.000000	 70.286000  
262.000000	 69.762000  
261.000000	 68.811000  
260.000000	 68.300000  
259.000000	 66.780000  
258.000000	 66.327000  
257.000000	 65.551999  
256.000000	 64.646000  
255.000000	 63.741000  
254.000000	 63.416000  
253.000000	 62.785999  
252.000000	 61.839000  
251.000000	 61.288000  
250.000000	 61.035000  
249.000000	 60.733000  
248.000000	 60.489000  
247.000000	 60.293000  
246.000000	 59.948000  
245.000000	 60.333000  
244.000000	 60.477000  
243.000000	 60.217000  
242.000000	 60.456000  
241.000000	 60.547000  
240.000000	 61.314000  
239.000000	 62.355000  
238.000000	 62.829000  
237.000000	 63.690000  
236.000000	 64.950000  
235.000000	 65.867000  
234.000000	 66.550000  
233.000000	 67.905000  
232.000000	 69.378000  
231.000000	 70.892000  
230.000000	 72.461000  
229.000000	 74.295999  
228.000000	 75.205000  
227.000000	 77.002000  
226.000000	 79.001000  
225.000000	 80.562000  
224.000000	 81.614000  
223.000000	 83.393000  
222.000000	 84.492999  
221.000000	 85.587000  
220.000000	 87.339999  
219.000000	 89.705000  
218.000000	 90.289000  
217.000000	 91.105999  
216.000000	 93.076000  
215.000000	 91.664000  
214.000000	 94.662000  
213.000000	 97.654000  
212.000000	 97.764000  
211.000000	 98.009999  
210.000000	 98.482000  
209.000000	 99.573000  
208.000000	 101.153000 
207.000000	 98.697000  
206.000000	 98.995000  
205.000000	 95.959000  
204.000000	 98.492999  
203.000000	 102.728000 
202.000000	 103.642000 
201.000000	 98.358000  
200.000000	 97.595000  
199.000000	 95.655999  
198.000000	 91.739999  
197.000000	 88.057000  
196.000000	 84.681000  
195.000000	 89.378000  
194.000000	 90.149999  
193.000000	 78.502000  
192.000000	 89.607000  
191.000000	 112.660000 
190.000000	 112.012000 

