M- prehled
Integration time: 1000 ms
Average: 5 scans
Nr of pixels used for smoothing: 0
Data measured with spectrometer serial number: 0501039S2
Wave   ;Sample
[nm]   ;[counts]
200,00;-130,1050
201,00;10,4066
202,00;-69,4303
203,00;-153,5975
204,00;-21,7562
205,00;-89,3992
206,00;-130,1343
207,00;-60,3248
208,00;-27,9585
209,00;81,6973
210,00;-114,8514
211,00;-23,3655
212,00;-97,6104
213,00;-37,0730
214,00;-66,2870
215,00;-41,1281
216,00;-64,9221
217,00;-76,2872
218,00;-98,8747
219,00;-79,9080
220,00;299,5599
221,00;10,1542
222,00;30,8200
223,00;-128,2536
224,00;-123,9891
225,00;60,9490
226,00;-34,3550
227,00;-62,7331
228,00;86,7525
229,00;-84,0213
230,00;3,8193
231,00;-62,5333
232,00;30,9376
233,00;26,2929
234,00;-67,6414
235,00;-31,4183
236,00;-69,7448
237,00;-52,3282
238,00;14,9019
239,00;-1,0065
240,00;-140,0586
241,00;-123,7726
242,00;-70,4089
243,00;-115,8291
244,00;108,3966
245,00;24,3461
246,00;-107,5930
247,00;-132,3835
248,00;4,0024
249,00;22,7726
250,00;-24,4480
251,00;96,7600
252,00;-105,3223
253,00;10,6952
254,00;-197,6288
255,00;-126,3018
256,00;-96,5562
257,00;45,2414
258,00;-41,0462
259,00;2,9704
260,00;-101,1630
261,00;-9,0013
262,00;25,2501
263,00;-112,6498
264,00;47,4448
265,00;33,6370
266,00;-13,6440
267,00;151,7744
268,00;-55,9589
269,00;110,7766
270,00;-74,0972
271,00;-6,9975
272,00;-24,8553
273,00;-32,2860
274,00;-40,7068
275,00;39,2260
276,00;-20,3788
277,00;-93,2590
278,00;-55,0835
279,00;-65,7963
280,00;-76,0552
281,00;-15,3332
282,00;-10,2029
283,00;-2,0270
284,00;-81,1218
285,00;-158,8229
286,00;-34,2504
287,00;-46,1313
288,00;-69,0392
289,00;-74,3798
290,00;-73,3010
291,00;-102,5503
292,00;-98,5620
293,00;-13,0204
294,00;-17,0803
295,00;-11,5445
296,00;-91,0182
297,00;-102,5396
298,00;-104,9595
299,00;-94,1088
300,00;-73,9619
301,00;23,8222
302,00;-86,0119
303,00;-70,2534
304,00;-78,4872
305,00;-89,9560
306,00;-45,2488
307,00;38,8058
308,00;4,3359
309,00;-68,0839
310,00;-115,6401
311,00;-20,3847
312,00;-40,3791
313,00;-25,4591
314,00;-42,9860
315,00;-88,5879
316,00;25,8598
317,00;-136,7863
318,00;-79,6084
319,00;4,4389
320,00;-89,0631
321,00;-17,6725
322,00;-87,3760
323,00;-141,5912
324,00;-30,4519
325,00;61,8057
326,00;-33,7659
327,00;-109,5520
328,00;-65,6287
329,00;-15,3768
330,00;-59,5973
331,00;-73,3898
332,00;2,1327
333,00;-48,7915
334,00;-31,9799
335,00;-112,0293
336,00;-66,5131
337,00;50,9019
338,00;-37,1804
339,00;-36,3198
340,00;-30,7537
341,00;-86,4100
342,00;-65,1860
343,00;-5,0140
344,00;-33,9905
345,00;-83,2502
346,00;136,9367
347,00;-84,5744
348,00;-85,2332
349,00;-130,7541
350,00;-54,1038
351,00;-5,6833
352,00;-23,4523
353,00;-85,2221
354,00;58,5194
355,00;-127,6461
356,00;-25,4931
357,00;-46,7221
358,00;61,8115
359,00;13,4768
360,00;-57,4299
361,00;-121,2003
362,00;-130,8003
363,00;-119,1228
364,00;-108,3142
365,00;-11,1877
366,00;-29,4694
367,00;89,7162
368,00;-91,2092
369,00;15,3122
370,00;-8,5796
371,00;-34,5350
372,00;-127,3525
373,00;-68,4348
374,00;-87,1902
375,00;48,1855
376,00;-46,2038
377,00;27,8603
378,00;-92,3909
379,00;57,5864
380,00;98,4841
381,00;-80,9209
382,00;16,5654
383,00;-0,9811
384,00;53,8965
385,00;7,3076
386,00;104,8095
387,00;-25,0795
388,00;6,8788
389,00;-15,1138
390,00;63,4484
391,00;158,8342
392,00;84,6974
393,00;-40,1612
394,00;66,3142
395,00;179,8854
396,00;102,5387
397,00;-44,5638
398,00;0,1316
399,00;59,0580
400,00;-37,7132
401,00;-43,3262
402,00;-92,9846
403,00;-60,8314
404,00;296,1381
405,00;244,4155
406,00;139,9539
407,00;21,6330
408,00;4,4021
409,00;89,1859
410,00;-24,2046
411,00;60,4546
412,00;115,0519
413,00;73,5136
414,00;-7,6113
415,00;295,5571
416,00;777,2667
417,00;94,9398
418,00;411,9173
419,00;1256,8130
420,00;1811,7320
421,00;-7,4830
422,00;52,6941
423,00;84,8258
424,00;114,8932
425,00;614,2277
426,00;1534,9860
427,00;787,4272
428,00;199,7162
429,00;141,1697
430,00;422,7644
431,00;186,5233
432,00;51,7223
433,00;586,8256
434,00;314,0026
435,00;111,9546
436,00;177,2445
437,00;356,0163
438,00;136,7775
439,00;143,6802
440,00;49,3666
441,00;3,9891
442,00;35,3168
443,00;142,7733
444,00;44,1277
445,00;112,2028
446,00;3,3701
447,00;-22,7750
448,00;-62,4174
449,00;-9,9159
450,00;114,6775
451,00;640,4961
452,00;59,0136
453,00;15,6712
454,00;33,1912
455,00;-13,2771
456,00;-38,3065
457,00;65,4358
458,00;63,2674
459,00;86,0502
460,00;16,1147
461,00;88,0744
462,00;-49,9586
463,00;80,9115
464,00;68,3030
465,00;252,8789
466,00;116,1164
467,00;49,4988
468,00;-54,1436
469,00;43,4512
470,00;53,0881
471,00;34,9625
472,00;31,4737
473,00;117,1735
474,00;-27,9800
475,00;160,2941
476,00;159,8430
477,00;112,4854
478,00;44,3184
479,00;68,5642
480,00;150,6689
481,00;101,2425
482,00;-13,7536
483,00;68,7678
484,00;60,3767
485,00;-34,2220
486,00;5,5835
487,00;127,0843
488,00;238,2891
489,00;194,4345
490,00;-66,4213
491,00;140,9941
492,00;58,7716
493,00;-42,0893
494,00;104,8829
495,00;127,0516
496,00;117,1326
497,00;156,5850
498,00;223,3376
499,00;128,1860
500,00;13,3712
501,00;74,3482
502,00;6,5218
503,00;6,8854
504,00;28,9724
505,00;137,7916
506,00;99,8219
507,00;47,6704
508,00;28,8416
509,00;98,6014
510,00;23,6674
511,00;-59,0280
512,00;84,1699
513,00;-6,4221
514,00;60,7534
515,00;92,3787
516,00;441,1841
517,00;55,6853
518,00;173,4869
519,00;309,4361
520,00;2,0114
521,00;251,2787
522,00;577,0112
523,00;570,1043
524,00;582,2799
525,00;1067,5810
526,00;856,8910
527,00;645,3309
528,00;618,5436
529,00;369,2835
530,00;239,1056
531,00;92,0830
532,00;29,3849
533,00;179,1686
534,00;-3,8804
535,00;43,0577
536,00;46,7533
537,00;91,8748
538,00;93,7227
539,00;6,8111
540,00;-98,9645
541,00;-15,4846
542,00;180,5567
543,00;105,7382
544,00;339,1882
545,00;316,2408
546,00;112,5071
547,00;-29,2039
548,00;117,0250
549,00;419,3522
550,00;529,8420
551,00;139,2581
552,00;134,5609
553,00;386,7806
554,00;234,6656
555,00;647,2519
556,00;1104,5070
557,00;1238,0200
558,00;1895,2070
559,00;1986,0570
560,00;2170,9120
561,00;1813,4560
562,00;1385,9280
563,00;751,6571
564,00;264,1937
565,00;303,6412
566,00;69,5474
567,00;96,8077
568,00;257,2831
569,00;118,9190
570,00;87,8378
571,00;137,3321
572,00;68,7680
573,00;63,4555
574,00;329,3721
575,00;91,9078
576,00;-42,1207
577,00;80,2548
578,00;-11,3551
579,00;58,9354
580,00;176,3854
581,00;167,8499
582,00;134,2059
583,00;224,1987
584,00;214,3400
585,00;183,6369
586,00;468,9311
587,00;343,8192
588,00;469,1405
589,00;556,5413
590,00;307,8279
591,00;737,9993
592,00;319,5188
593,00;425,5501
594,00;234,8244
595,00;351,8199
596,00;582,2807
597,00;1112,6070
598,00;871,6336
599,00;865,0492
600,00;727,7851
601,00;617,9561
602,00;604,7953
603,00;1406,7020
604,00;643,9575
605,00;422,8511
606,00;202,7342
607,00;-20,5840
608,00;41,6998
609,00;16,1900
610,00;187,3300
611,00;169,8880
612,00;52,8966
613,00;0,5131
614,00;30,2475
615,00;127,2520
616,00;304,9322
617,00;237,8915
618,00;296,5193
619,00;52,1208
620,00;-8,6809
621,00;232,0429
622,00;113,1834
623,00;25,6371
624,00;-126,9423
625,00;-60,9268
626,00;31,2860
627,00;118,0805
628,00;-2,7205
629,00;85,9682
630,00;156,6113
631,00;144,0954
632,00;122,7716
633,00;105,2313
634,00;261,0941
635,00;515,9167
636,00;687,6746
637,00;434,3661
638,00;488,1002
639,00;388,8171
640,00;328,9276
641,00;476,5776
642,00;360,1413
643,00;104,7094
644,00;-25,5388
645,00;195,0961
646,00;111,6816
647,00;80,3722
648,00;-111,9216
649,00;117,6046
650,00;-17,2324
651,00;-32,4900
652,00;-12,2807
653,00;111,3894
654,00;86,2829
655,00;-85,1121
656,00;-59,6807
657,00;56,6496
658,00;69,9862
659,00;140,0368
660,00;158,4698
661,00;20,6701
662,00;8,9314
663,00;-3,2160
664,00;10,4922
665,00;-11,7912
666,00;126,6716
667,00;113,4687
668,00;271,1738
669,00;78,7669
670,00;334,6749
671,00;38,8951
672,00;43,1515
673,00;39,8945
674,00;113,5362
675,00;781,6955
676,00;269,3748
677,00;291,6356
678,00;177,1908
679,00;214,7216
680,00;173,8250
681,00;199,2947
682,00;102,6927
683,00;211,3787
684,00;201,9299
685,00;144,6399
686,00;54,2531
687,00;453,7109
688,00;30,7886
689,00;-37,1280
690,00;4,1124
691,00;-60,0243
692,00;108,8489
693,00;87,0228
694,00;157,4336
695,00;49,7469
696,00;962,1362
697,00;528,7544
698,00;85,1417
699,00;50,1368
700,00;66,5750
701,00;32,4135
702,00;4,2661
703,00;339,0302
704,00;10,8753
705,00;70,3617
706,00;642,7698
707,00;1061,9020
708,00;26,1327
709,00;110,2664
710,00;246,9059
711,00;-34,0791
712,00;64,9580
713,00;-63,8281
714,00;79,5604
715,00;171,7870
716,00;64,6540
717,00;-4,2099
718,00;19,6000
719,00;159,8173
720,00;132,5340
721,00;194,4880
722,00;-85,8164
723,00;15,9268
724,00;-1,7633
725,00;21,5487
726,00;120,6963
727,00;384,4506
728,00;188,2338
729,00;15,5973
730,00;-62,3220
731,00;148,3481
732,00;-24,9818
733,00;-28,0792
734,00;98,0554
735,00;177,0303
736,00;181,4891
737,00;602,7715
738,00;1586,1330
739,00;637,5614
740,00;36,0788
741,00;239,3560
742,00;183,0097
743,00;143,5132
744,00;420,4802
745,00;99,1992
746,00;70,0415
747,00;52,8076
748,00;8,1622
749,00;100,9143
750,00;5884,3930
751,00;4451,7680
752,00;1269,0830
753,00;98,1993
754,00;44,9443
755,00;49,5654
756,00;20,4082
757,00;7,4033
758,00;-150,1298
759,00;-26,5880
760,00;182,1453
761,00;226,5275
762,00;55,5647
763,00;2964,6590
764,00;1559,0610
765,00;1,9869
766,00;32,4833
767,00;-57,0623
768,00;-60,4953
769,00;-22,1000
770,00;-33,1674
771,00;-19,7283
772,00;1048,6480
773,00;431,1407
774,00;14,5187
775,00;-44,4601
776,00;197,3535
777,00;4719,6810
778,00;1525,8590
779,00;50,1187
780,00;11,7266
781,00;-61,8980
782,00;-45,8298
783,00;63,9471
784,00;78,5601
785,00;-97,5202
786,00;-52,1680
787,00;16,9843
788,00;-4,4064
789,00;-3,6371
790,00;-44,8553
791,00;-77,7347
792,00;-72,6039
793,00;-59,3886
794,00;377,8949
795,00;794,1981
796,00;46,8328
797,00;21,9573
798,00;-29,9335
799,00;-62,4539
800,00;339,9589
801,00;917,3120
802,00;390,8762
803,00;-36,1820
804,00;-122,0793
805,00;29,3687
806,00;-109,8484
807,00;57,6864
808,00;-49,9716
809,00;2,6555
810,00;1267,6770
811,00;2865,6710
812,00;1725,2120
813,00;2,5643
814,00;1,2993
815,00;-64,5550
816,00;-85,4658
817,00;22,9615
818,00;-42,9293
819,00;-9,8555
820,00;-44,4780
821,00;13,2696
822,00;-26,6062
823,00;-126,0921
824,00;-65,3331
825,00;-87,7255
826,00;368,2767
827,00;108,6580
828,00;-46,7549
829,00;-51,5740
830,00;-112,2781
831,00;12,1405
832,00;-150,2860
833,00;-45,2336
834,00;-100,1733
835,00;-101,2859
836,00;-14,1909
837,00;42,0309
838,00;4,1328
839,00;59,5375
840,00;357,7776
841,00;711,0735
842,00;1098,8780
843,00;590,1880
844,00;572,0859
845,00;638,5138
846,00;-6,7909
847,00;-52,2125
848,00;10,7298
849,00;-111,4134
850,00;-112,9247
851,00;-20,5117
852,00;288,0295
853,00;-115,5385
854,00;-29,8058
855,00;-48,8341
856,00;60,8526
857,00;-1,4103
858,00;-89,2150
859,00;24,7828
860,00;47,7146
861,00;-40,0942
862,00;-75,3406
863,00;-18,1619
864,00;-93,3637
865,00;-51,9617
866,00;3,5417
867,00;-21,0441
868,00;-8,6607
869,00;37,4078
870,00;10,1163
871,00;-90,6116
872,00;-71,6434
873,00;-23,8133
874,00;-25,8734
875,00;23,1205
876,00;-58,4214
877,00;173,7998
878,00;-61,0022
879,00;-50,6369
880,00;42,9322
881,00;-30,3727
882,00;-32,8562
883,00;-18,5442
884,00;99,4386
885,00;-77,4687
886,00;-88,8981
887,00;-42,0130
888,00;-38,4557
889,00;-49,3637
890,00;-35,9271
891,00;60,9072
892,00;-81,8562
893,00;49,1895
894,00;-126,3214
895,00;-62,6148
896,00;-104,7033
897,00;-58,0247
898,00;-36,5409
899,00;-40,0104
900,00;-141,6821
901,00;67,4524
902,00;26,5692
903,00;-19,6205
904,00;-26,4960
905,00;4,6087
906,00;-168,2637
907,00;-116,1169
908,00;-110,2848
909,00;-79,7317
910,00;-160,1794
911,00;-10,6184
912,00;989,4103
913,00;302,5335
914,00;39,2331
915,00;-16,7313
916,00;-41,3118
917,00;-30,8645
918,00;-70,3879
919,00;5,3529
920,00;-70,5587
921,00;-63,6253
922,00;77,0667
923,00;36,8138
924,00;-52,9360
925,00;7,7870
926,00;166,6641
927,00;134,0151
928,00;-35,5215
929,00;-42,6476
930,00;-115,5870
931,00;-83,8435
932,00;-71,3945
933,00;-83,3178
934,00;-25,7591
935,00;-24,4344
936,00;96,2341
937,00;49,3315
938,00;34,1188
939,00;-25,7901
940,00;-56,6963
941,00;-106,6593
942,00;-119,4315
943,00;-110,5944
944,00;-129,7156
945,00;9,3331
946,00;-66,7969
947,00;54,0160
948,00;-22,3455
949,00;-78,9894
950,00;-72,9395
951,00;106,4678
952,00;-130,3715
953,00;-91,9058
954,00;-115,2371
955,00;-16,9593
956,00;-128,9869
957,00;-81,6865
958,00;-94,9553
959,00;18,5368
960,00;-88,3087
961,00;-99,1798
962,00;-48,0907
963,00;105,2693
964,00;-35,3481
965,00;-24,0977
966,00;148,6292
967,00;137,9216
968,00;-3,2255
969,00;-82,4499
970,00;-120,2603
971,00;-47,4031
972,00;-2,9816
973,00;-0,7133
974,00;-141,8557
975,00;88,7748
976,00;18,5506
977,00;-138,6812
978,00;-70,2399
979,00;0,9225
980,00;-111,3259
981,00;-30,8518
982,00;-135,6621
983,00;-69,0366
984,00;-155,8714
985,00;-31,3891
986,00;18,3208
987,00;81,6907
988,00;46,3926
989,00;-52,3397
990,00;51,0085
991,00;-107,0534
992,00;-43,6635
993,00;-22,5338
994,00;-136,7936
995,00;-32,8815
996,00;-99,8660
997,00;-35,9788
998,00;-48,9758
999,00;-121,8465
1000,00;98,6851
1001,00;48,5053
1002,00;-46,0145
1003,00;-10,0600
1004,00;-35,6857
1005,00;-55,0689
1006,00;-91,3030
1007,00;-44,7425
1008,00;23,9881
1009,00;-39,7680
1010,00;-23,2899
1011,00;39,8250
1012,00;17,2057
1013,00;-108,9402
1014,00;102,1357
1015,00;119,4012
1016,00;-81,6922
1017,00;-95,7946
1018,00;-25,0577
1019,00;-125,8397
1020,00;-56,0915
1021,00;-43,3407
1022,00;-160,4935
1023,00;-28,9396
1024,00;-51,6593
1025,00;18,4781
1026,00;68,9023
1027,00;-34,7480
1028,00;-9,9538
1029,00;-0,5425
1030,00;-48,7532
1031,00;-98,0410
1032,00;-28,9979
1033,00;17,3252
1034,00;-125,6558
1035,00;-134,0997
1036,00;60,6542
1037,00;-76,8472
1038,00;-90,1281
1039,00;-6,1123
1040,00;-89,6162
1041,00;7,1842
1042,00;-21,8933
1043,00;65,5139
1044,00;221,2387
1045,00;-43,8884
1046,00;-73,1280
1047,00;40,8580
1048,00;-8,7978
1049,00;-76,4861
1050,00;-66,7965
1051,00;-73,3569
1052,00;-37,8449
1053,00;-161,9797
1054,00;-33,9413
1055,00;-100,3716
1056,00;-95,6240
1057,00;-90,2736
1058,00;54,4887
1059,00;5,4053
1060,00;-31,8264
1061,00;-90,9427
1062,00;-60,4950
1063,00;-97,4394
1064,00;-7,0429
1065,00;-38,7778
1066,00;-35,7726
1067,00;-18,9520
1068,00;-124,8577
1069,00;-78,9904
1070,00;-74,4608
1071,00;-87,9694
1072,00;23,2442
1073,00;10,3558
1074,00;-35,3359
1075,00;-12,7714
1076,00;-66,1611
1077,00;-65,3101
1078,00;-51,7504
1079,00;-33,8630
1080,00;-110,5563
1081,00;-40,4902
1082,00;-51,3252
1083,00;-144,2123
1084,00;-18,9850
1085,00;-28,5552
1086,00;15,9193
1087,00;-68,3018
1088,00;-20,5683
1089,00;73,3446
1090,00;-76,1655
1091,00;68,6049
1092,00;-33,1677
1093,00;55,7438
1094,00;32,2274
1095,00;26,5679
1096,00;-110,6623
1097,00;-65,8257
1098,00;-65,9581
1099,00;-65,8803
1100,00;-66,8522
