M- 12.7Pa 25W 25-50
Integration time: 1000 ms
Average: 20 scans
Nr of pixels used for smoothing: 0
Data measured with spectrometer serial number: 0501039S2
Wave   ;Sample
[nm]   ;[counts]
200,00;-186,3244
201,00;-1,5298
202,00;-91,6564
203,00;-205,3369
204,00;-23,3605
205,00;-126,8920
206,00;-187,7470
207,00;-80,3919
208,00;-29,6531
209,00;112,0529
210,00;-171,7599
211,00;-81,2156
212,00;-126,7134
213,00;-39,6654
214,00;-66,1489
215,00;-64,0758
216,00;-92,0844
217,00;-118,9589
218,00;-135,3299
219,00;-112,6603
220,00;415,6047
221,00;28,0881
222,00;53,0273
223,00;-181,0220
224,00;-180,8853
225,00;88,9921
226,00;-43,2627
227,00;-69,1821
228,00;134,5254
229,00;-130,2193
230,00;17,7785
231,00;-81,5728
232,00;51,1970
233,00;57,5841
234,00;-109,2842
235,00;-30,8142
236,00;-100,3116
237,00;-58,2988
238,00;27,6291
239,00;1,9289
240,00;-194,7248
241,00;-178,5494
242,00;-78,0490
243,00;-164,1046
244,00;168,2765
245,00;42,2075
246,00;-134,3620
247,00;-183,5803
248,00;-2,2859
249,00;33,1075
250,00;-30,2710
251,00;153,2126
252,00;-138,3459
253,00;31,8280
254,00;-270,4969
255,00;-172,1587
256,00;-137,8616
257,00;51,3228
258,00;-62,1550
259,00;3,0642
260,00;-135,3351
261,00;-4,3068
262,00;61,7914
263,00;-161,3148
264,00;67,9026
265,00;51,0614
266,00;-17,7787
267,00;214,6624
268,00;-83,8470
269,00;135,4249
270,00;-103,3626
271,00;12,1136
272,00;-53,0733
273,00;-36,5783
274,00;-7,9900
275,00;85,1634
276,00;-29,2498
277,00;-122,8381
278,00;-83,0201
279,00;-95,9955
280,00;-90,5614
281,00;-10,2563
282,00;-12,5971
283,00;2,3655
284,00;-114,1527
285,00;-212,1992
286,00;-37,2744
287,00;-70,8909
288,00;-97,8549
289,00;-101,6659
290,00;-75,2662
291,00;-127,7008
292,00;-128,8364
293,00;-12,6489
294,00;-23,2229
295,00;10,1825
296,00;-124,1586
297,00;-125,9716
298,00;-141,4109
299,00;-125,1342
300,00;-69,3998
301,00;43,7881
302,00;-111,2336
303,00;-91,8191
304,00;-92,8708
305,00;-113,0144
306,00;-52,1497
307,00;62,5104
308,00;32,9742
309,00;-78,6608
310,00;-154,1576
311,00;-12,3196
312,00;-54,2295
313,00;-8,1489
314,00;-49,6627
315,00;-111,1263
316,00;37,2241
317,00;-181,4918
318,00;-105,0641
319,00;24,2054
320,00;-111,6195
321,00;-22,5837
322,00;-118,7988
323,00;-185,6893
324,00;-26,2429
325,00;98,6081
326,00;-39,5913
327,00;-146,2502
328,00;-79,9202
329,00;-9,2691
330,00;-78,4649
331,00;-111,2017
332,00;14,2071
333,00;-57,9441
334,00;-32,8811
335,00;-155,6965
336,00;-96,6231
337,00;89,2984
338,00;-26,5879
339,00;-31,2487
340,00;-43,0328
341,00;-119,4250
342,00;-74,3339
343,00;17,4648
344,00;-31,5128
345,00;-110,1190
346,00;216,7566
347,00;-112,3517
348,00;-97,0334
349,00;-169,5351
350,00;-78,0815
351,00;10,7743
352,00;-16,5635
353,00;-108,5107
354,00;92,4246
355,00;-191,6156
356,00;-16,5948
357,00;-61,1506
358,00;109,3832
359,00;34,2829
360,00;-75,0715
361,00;-165,7573
362,00;-168,9328
363,00;-153,3529
364,00;-149,1684
365,00;-18,8308
366,00;-30,0154
367,00;154,6912
368,00;-127,2647
369,00;17,0756
370,00;-10,6342
371,00;-23,5372
372,00;-164,6071
373,00;-96,2919
374,00;-130,6723
375,00;54,1672
376,00;-58,2098
377,00;52,4571
378,00;-132,8549
379,00;59,7361
380,00;125,8278
381,00;-106,5647
382,00;8,9583
383,00;-96,2925
384,00;8,4408
385,00;-53,8772
386,00;83,5380
387,00;-107,5392
388,00;-88,6008
389,00;-83,6387
390,00;48,2270
391,00;170,3897
392,00;72,3263
393,00;-144,7459
394,00;-81,4261
395,00;76,2679
396,00;74,2021
397,00;-134,9225
398,00;-58,7211
399,00;12,4097
400,00;-77,9830
401,00;-77,5578
402,00;-155,0723
403,00;-121,3348
404,00;78,4899
405,00;211,6401
406,00;143,7556
407,00;-66,0083
408,00;-66,4127
409,00;62,6765
410,00;-103,7951
411,00;35,0174
412,00;75,7370
413,00;0,0082
414,00;-75,5579
415,00;9,6431
416,00;358,2517
417,00;-18,4988
418,00;190,0351
419,00;482,7018
420,00;782,1569
421,00;-156,5168
422,00;-24,7958
423,00;26,2526
424,00;81,0380
425,00;268,2878
426,00;847,1737
427,00;382,4023
428,00;124,4060
429,00;55,4251
430,00;232,5632
431,00;184,6122
432,00;-48,7322
433,00;213,3222
434,00;82,9687
435,00;-94,3644
436,00;36,2980
437,00;223,3261
438,00;75,0550
439,00;138,8660
440,00;-18,2997
441,00;-59,9312
442,00;-43,8849
443,00;140,9016
444,00;42,4215
445,00;162,4836
446,00;-29,5237
447,00;-70,1495
448,00;-141,5085
449,00;-34,9540
450,00;27,1540
451,00;408,2325
452,00;-26,9205
453,00;-13,7375
454,00;-46,3485
455,00;-83,5065
456,00;-76,7027
457,00;46,7987
458,00;-3,1544
459,00;-54,7563
460,00;-102,4582
461,00;-15,6763
462,00;-111,1357
463,00;66,0415
464,00;-13,2645
465,00;243,2377
466,00;76,6317
467,00;22,9555
468,00;-108,7561
469,00;8,5257
470,00;-82,1346
471,00;-12,8932
472,00;-27,6806
473,00;56,6075
474,00;-102,8354
475,00;84,5381
476,00;25,6450
477,00;-18,4515
478,00;21,2600
479,00;52,3813
480,00;79,4402
481,00;59,6252
482,00;-68,8111
483,00;-14,1817
484,00;2,0416
485,00;-102,2027
486,00;-32,0693
487,00;9,9374
488,00;48,2031
489,00;63,5895
490,00;-140,7943
491,00;207,7021
492,00;47,7831
493,00;-88,4305
494,00;118,3188
495,00;100,4748
496,00;33,2265
497,00;74,6668
498,00;212,2187
499,00;87,5104
500,00;-34,7032
501,00;52,4362
502,00;-36,9300
503,00;-44,9984
504,00;8,1563
505,00;114,0271
506,00;-15,6798
507,00;-23,0994
508,00;-28,4281
509,00;72,1078
510,00;-1,4050
511,00;-139,5052
512,00;46,8080
513,00;-37,8201
514,00;28,1297
515,00;-9,2198
516,00;340,1191
517,00;-16,4927
518,00;18,2664
519,00;122,1644
520,00;-101,3663
521,00;106,4750
522,00;225,4074
523,00;328,6883
524,00;271,5896
525,00;557,4820
526,00;534,2093
527,00;366,3176
528,00;382,6735
529,00;238,0090
530,00;259,0467
531,00;51,8597
532,00;-66,6377
533,00;98,7491
534,00;-71,1247
535,00;-19,3066
536,00;25,7801
537,00;27,2439
538,00;51,4806
539,00;-84,7232
540,00;-174,6866
541,00;-112,4359
542,00;121,3367
543,00;96,5621
544,00;303,6519
545,00;199,3919
546,00;13,8608
547,00;-75,7813
548,00;107,9214
549,00;71,0286
550,00;274,0702
551,00;33,2350
552,00;77,7207
553,00;340,2605
554,00;61,7499
555,00;346,7188
556,00;557,6767
557,00;664,3989
558,00;1147,1300
559,00;1217,5280
560,00;1287,7180
561,00;1072,8220
562,00;874,1456
563,00;408,1291
564,00;125,1543
565,00;111,4996
566,00;9,6392
567,00;123,4386
568,00;215,4855
569,00;-29,3576
570,00;65,4653
571,00;168,5248
572,00;95,0405
573,00;24,8346
574,00;233,6969
575,00;106,1981
576,00;-69,3559
577,00;1,5996
578,00;-52,0595
579,00;32,0372
580,00;157,6551
581,00;212,1752
582,00;126,9110
583,00;66,9251
584,00;115,4037
585,00;101,0800
586,00;432,9868
587,00;236,5445
588,00;278,8129
589,00;309,1209
590,00;219,8958
591,00;397,2373
592,00;136,8952
593,00;242,6360
594,00;106,5651
595,00;205,1394
596,00;371,8815
597,00;721,4022
598,00;531,4937
599,00;576,4719
600,00;355,9502
601,00;328,8903
602,00;356,5802
603,00;718,5202
604,00;333,6693
605,00;388,0924
606,00;76,7402
607,00;-67,1503
608,00;26,4650
609,00;-66,8585
610,00;-19,2451
611,00;83,7872
612,00;1,1345
613,00;-38,6030
614,00;-33,2648
615,00;2,3206
616,00;135,7815
617,00;66,4643
618,00;215,0816
619,00;10,7306
620,00;-47,4307
621,00;129,3894
622,00;34,9554
623,00;15,1653
624,00;-210,5618
625,00;-126,2331
626,00;21,0937
627,00;156,5263
628,00;-23,0661
629,00;-28,4021
630,00;6,2191
631,00;34,2839
632,00;80,0980
633,00;37,6050
634,00;154,0473
635,00;349,4405
636,00;469,7016
637,00;176,8368
638,00;243,7502
639,00;170,3368
640,00;117,1690
641,00;286,9585
642,00;235,0157
643,00;114,0987
644,00;-58,9325
645,00;171,5171
646,00;61,0337
647,00;51,4475
648,00;-176,1062
649,00;124,7658
650,00;-61,6205
651,00;-72,9836
652,00;-19,4217
653,00;125,6969
654,00;41,1495
655,00;-134,7318
656,00;-104,7012
657,00;76,9633
658,00;86,7036
659,00;193,3727
660,00;156,2360
661,00;-18,2268
662,00;-17,3517
663,00;-18,4693
664,00;-3,5898
665,00;-56,7195
666,00;76,5951
667,00;53,7679
668,00;240,6708
669,00;-2,5137
670,00;338,8376
671,00;-50,2462
672,00;-71,0344
673,00;-36,0189
674,00;28,3903
675,00;336,1486
676,00;102,9298
677,00;235,8907
678,00;76,3646
679,00;129,4678
680,00;119,9898
681,00;116,6382
682,00;-9,9091
683,00;163,9895
684,00;202,2805
685,00;109,6003
686,00;-16,5219
687,00;117,8627
688,00;-73,7621
689,00;-109,6192
690,00;-10,7227
691,00;-88,5322
692,00;125,2291
693,00;47,1856
694,00;80,4791
695,00;-26,6660
696,00;369,8934
697,00;277,1256
698,00;109,4138
699,00;34,9128
700,00;71,7261
701,00;35,6292
702,00;-62,8989
703,00;195,3460
704,00;-19,5000
705,00;69,0160
706,00;119,6897
707,00;500,8207
708,00;-23,6179
709,00;139,2099
710,00;308,1156
711,00;-103,9650
712,00;26,5738
713,00;-139,7499
714,00;49,9833
715,00;103,7737
716,00;-8,0132
717,00;-49,9859
718,00;-24,2702
719,00;168,7210
720,00;47,3323
721,00;102,1615
722,00;-166,7324
723,00;-24,7690
724,00;-27,9442
725,00;2,6524
726,00;34,7269
727,00;203,2331
728,00;140,9506
729,00;-26,0930
730,00;-133,0660
731,00;43,7974
732,00;-115,1173
733,00;-84,2472
734,00;135,1443
735,00;56,2235
736,00;209,7065
737,00;312,0239
738,00;747,2694
739,00;427,1307
740,00;29,1426
741,00;280,1721
742,00;199,5377
743,00;105,6919
744,00;535,9524
745,00;123,4818
746,00;68,2745
747,00;57,9169
748,00;-55,5601
749,00;-16,2677
750,00;2818,1790
751,00;2511,9480
752,00;751,2278
753,00;77,8872
754,00;9,8342
755,00;16,8244
756,00;-4,4081
757,00;-12,3384
758,00;-226,4230
759,00;-66,7298
760,00;243,7586
761,00;302,2906
762,00;1,0576
763,00;1387,2410
764,00;973,1121
765,00;-59,7383
766,00;28,1235
767,00;-100,2949
768,00;-119,0964
769,00;-62,2573
770,00;-79,5168
771,00;-80,8137
772,00;383,4098
773,00;244,5876
774,00;-18,7953
775,00;-103,9745
776,00;136,8373
777,00;3716,1740
778,00;1676,4350
779,00;45,7314
780,00;28,6109
781,00;-93,8781
782,00;-80,5050
783,00;57,1467
784,00;107,7745
785,00;-140,6447
786,00;-118,7347
787,00;-0,2539
788,00;-9,9577
789,00;-41,8688
790,00;-48,0387
791,00;-119,0676
792,00;-102,4734
793,00;-88,4587
794,00;222,7225
795,00;330,5219
796,00;28,4045
797,00;29,2425
798,00;-39,3425
799,00;-97,1985
800,00;255,9452
801,00;365,8651
802,00;181,2614
803,00;-76,3972
804,00;-176,5060
805,00;2,1905
806,00;-171,3472
807,00;82,5798
808,00;-79,2412
809,00;-57,3917
810,00;517,2203
811,00;1212,3400
812,00;1015,5460
813,00;-73,0573
814,00;2,3290
815,00;-98,1169
816,00;-103,9443
817,00;28,7803
818,00;-79,8438
819,00;-24,4487
820,00;-63,7777
821,00;24,7110
822,00;-45,1747
823,00;-180,7488
824,00;-91,3576
825,00;-113,9190
826,00;184,2889
827,00;2,6996
828,00;-82,2880
829,00;-63,6070
830,00;-163,5733
831,00;37,3530
832,00;-225,2243
833,00;-62,5831
834,00;-142,6466
835,00;-124,0353
836,00;-9,6731
837,00;59,1096
838,00;-4,3635
839,00;74,3411
840,00;151,4350
841,00;339,8091
842,00;467,0447
843,00;379,5599
844,00;322,6010
845,00;679,5776
846,00;-22,5240
847,00;-71,3395
848,00;15,2181
849,00;-169,1553
850,00;-163,1457
851,00;-96,1953
852,00;72,9931
853,00;-185,7233
854,00;-31,7912
855,00;-56,4510
856,00;91,1869
857,00;7,9612
858,00;-116,6830
859,00;27,8700
860,00;51,6862
861,00;-62,4897
862,00;-102,2251
863,00;-22,4502
864,00;-122,9111
865,00;-62,0379
866,00;-17,7617
867,00;-79,3245
868,00;-31,6952
869,00;46,9891
870,00;10,1881
871,00;-108,7474
872,00;-108,8654
873,00;-30,5531
874,00;-47,5498
875,00;51,4404
876,00;-88,3598
877,00;256,9164
878,00;-69,8939
879,00;-46,4018
880,00;70,3894
881,00;-42,3621
882,00;-31,7990
883,00;-15,0772
884,00;149,0681
885,00;-112,1538
886,00;-120,4008
887,00;-57,1276
888,00;-38,9202
889,00;-61,7466
890,00;-45,5903
891,00;71,0711
892,00;-95,5598
893,00;88,4266
894,00;-176,6652
895,00;-67,3419
896,00;-150,5459
897,00;-64,1947
898,00;-17,9731
899,00;-59,6371
900,00;-197,8571
901,00;102,5963
902,00;55,4711
903,00;-26,9462
904,00;-43,0651
905,00;5,4371
906,00;-232,2485
907,00;-157,2087
908,00;-142,4609
909,00;-123,0288
910,00;-217,2845
911,00;-48,1112
912,00;452,8537
913,00;270,4736
914,00;31,1824
915,00;-17,6376
916,00;-52,2314
917,00;-48,3869
918,00;-97,7719
919,00;0,7816
920,00;-102,0250
921,00;-90,9539
922,00;-9,2776
923,00;-11,2838
924,00;-66,3748
925,00;22,7679
926,00;151,7089
927,00;159,2593
928,00;-41,7106
929,00;-54,8843
930,00;-148,6910
931,00;-110,7152
932,00;-92,0724
933,00;-104,8940
934,00;-18,9037
935,00;-17,8680
936,00;142,3122
937,00;77,9872
938,00;79,5174
939,00;-17,3328
940,00;-70,5191
941,00;-148,7366
942,00;-164,6634
943,00;-143,8810
944,00;-174,7094
945,00;10,0642
946,00;-96,0858
947,00;84,4609
948,00;-14,2688
949,00;-107,5920
950,00;-108,0905
951,00;153,3360
952,00;-164,8969
953,00;-116,6518
954,00;-137,9445
955,00;-23,7913
956,00;-170,4597
957,00;-98,9877
958,00;-136,3426
959,00;36,3035
960,00;-122,4906
961,00;-102,7395
962,00;-46,1461
963,00;167,1494
964,00;-41,7370
965,00;-78,0495
966,00;110,6651
967,00;204,4124
968,00;-7,2399
969,00;-102,9386
970,00;-146,3608
971,00;-64,9121
972,00;11,9570
973,00;-13,0621
974,00;-175,9664
975,00;141,7866
976,00;11,0839
977,00;-181,5822
978,00;-103,2711
979,00;0,0427
980,00;-162,3251
981,00;-50,0157
982,00;-153,2259
983,00;-81,6054
984,00;-206,4564
985,00;-47,6596
986,00;34,2219
987,00;111,6747
988,00;83,2487
989,00;-53,1020
990,00;3,1887
991,00;-124,0036
992,00;-38,2541
993,00;-17,9883
994,00;-213,5533
995,00;-30,6439
996,00;-136,4301
997,00;-50,4619
998,00;-57,2267
999,00;-165,1448
1000,00;142,6419
1001,00;84,1032
1002,00;-68,1253
1003,00;-10,8470
1004,00;-39,6840
1005,00;-86,3002
1006,00;-119,1238
1007,00;-64,7328
1008,00;48,5468
1009,00;-56,0421
1010,00;-26,3416
1011,00;66,1875
1012,00;16,3211
1013,00;-147,5464
1014,00;173,1781
1015,00;172,9387
1016,00;-111,0177
1017,00;-127,0589
1018,00;-46,2507
1019,00;-172,6718
1020,00;-88,6555
1021,00;-57,5485
1022,00;-213,1183
1023,00;-16,2143
1024,00;-68,7774
1025,00;43,9105
1026,00;108,0453
1027,00;-32,3944
1028,00;-2,9269
1029,00;7,7503
1030,00;-59,1887
1031,00;-116,0650
1032,00;-36,0957
1033,00;24,6218
1034,00;-161,0147
1035,00;-184,4718
1036,00;88,7064
1037,00;-119,5354
1038,00;-118,1643
1039,00;9,4943
1040,00;-105,8908
1041,00;17,8356
1042,00;-35,6123
1043,00;97,9832
1044,00;353,6732
1045,00;-38,7025
1046,00;-105,6830
1047,00;57,6044
1048,00;-13,3811
1049,00;-89,7405
1050,00;-81,0823
1051,00;-90,7381
1052,00;-35,3776
1053,00;-211,1676
1054,00;-31,9729
1055,00;-146,1269
1056,00;-127,7159
1057,00;-105,5960
1058,00;95,1073
1059,00;23,3111
1060,00;-39,9082
1061,00;-113,1677
1062,00;-54,7813
1063,00;-137,1886
1064,00;-10,5643
1065,00;-64,5551
1066,00;-24,2921
1067,00;-21,1605
1068,00;-171,7696
1069,00;-98,1718
1070,00;-84,0433
1071,00;-107,0177
1072,00;36,5393
1073,00;20,6436
1074,00;-49,9415
1075,00;-12,3914
1076,00;-83,9258
1077,00;-96,3012
1078,00;-66,2512
1079,00;-21,5839
1080,00;-155,8539
1081,00;-61,0730
1082,00;-82,2729
1083,00;-185,3073
1084,00;-11,7365
1085,00;-52,6647
1086,00;22,9044
1087,00;-83,2424
1088,00;-13,0784
1089,00;117,4562
1090,00;-131,3820
1091,00;112,4732
1092,00;-64,6524
1093,00;92,3282
1094,00;34,6973
1095,00;35,6498
1096,00;-138,8527
1097,00;-77,9074
1098,00;-103,0360
1099,00;-93,7001
1100,00;-89,5273
