M- 9.3Pa 30W 50-50
Integration time: 1000 ms
Average: 20 scans
Nr of pixels used for smoothing: 0
Data measured with spectrometer serial number: 0501039S2
Wave   ;Sample
[nm]   ;[counts]
200,00;-150,0271
201,00;-8,3637
202,00;-75,7629
203,00;-160,4935
204,00;-14,6985
205,00;-98,9872
206,00;-152,5182
207,00;-63,6062
208,00;-17,0200
209,00;97,3809
210,00;-139,6140
211,00;-27,3776
212,00;-106,0108
213,00;-32,0611
214,00;-54,6541
215,00;-50,6263
216,00;-74,8233
217,00;-97,3477
218,00;-112,2321
219,00;-92,6140
220,00;316,8096
221,00;21,1955
222,00;42,1710
223,00;-144,5153
224,00;-140,4344
225,00;65,6389
226,00;-31,5188
227,00;-61,6142
228,00;108,6438
229,00;-106,5917
230,00;9,8545
231,00;-69,1790
232,00;30,0748
233,00;50,8125
234,00;-78,0780
235,00;-26,9340
236,00;-87,9210
237,00;-44,7028
238,00;13,5808
239,00;-3,9781
240,00;-156,4385
241,00;-138,9619
242,00;-65,8614
243,00;-131,0056
244,00;128,9187
245,00;34,4469
246,00;-114,0076
247,00;-145,6050
248,00;6,9805
249,00;25,8682
250,00;-34,7159
251,00;117,0863
252,00;-110,6598
253,00;18,4542
254,00;-217,5286
255,00;-141,9222
256,00;-111,0533
257,00;46,6332
258,00;-51,0270
259,00;4,4104
260,00;-108,0868
261,00;0,0582
262,00;52,9069
263,00;-124,9434
264,00;51,5280
265,00;40,8533
266,00;-12,3742
267,00;163,9993
268,00;-62,5108
269,00;108,9260
270,00;-81,7437
271,00;2,0366
272,00;-9,2100
273,00;-33,7362
274,00;-10,8587
275,00;59,8021
276,00;-19,3862
277,00;-91,7522
278,00;-68,9526
279,00;-80,7192
280,00;-77,2472
281,00;-5,8683
282,00;-5,9248
283,00;1,3924
284,00;-94,9311
285,00;-169,7770
286,00;-35,7096
287,00;-55,2803
288,00;-80,4948
289,00;-80,9078
290,00;-63,9579
291,00;-96,8299
292,00;-104,8260
293,00;-18,7927
294,00;-13,6397
295,00;-0,4152
296,00;-99,2538
297,00;-105,2308
298,00;-111,7487
299,00;-105,1226
300,00;-59,6808
301,00;37,4878
302,00;-88,4689
303,00;-72,8984
304,00;-79,3021
305,00;-92,9143
306,00;-44,1697
307,00;44,2340
308,00;-0,9253
309,00;-65,6822
310,00;-121,0989
311,00;-14,9138
312,00;-44,4051
313,00;-12,1596
314,00;-41,7706
315,00;-91,3062
316,00;32,9961
317,00;-157,1246
318,00;-92,4941
319,00;20,8079
320,00;-100,9337
321,00;-24,6179
322,00;-97,0643
323,00;-149,4772
324,00;-22,8379
325,00;71,0400
326,00;-40,8264
327,00;-126,3717
328,00;-69,6350
329,00;-1,4646
330,00;-59,3195
331,00;-85,4609
332,00;0,0509
333,00;-56,2675
334,00;-27,5463
335,00;-126,9680
336,00;-67,5968
337,00;59,7447
338,00;-21,5297
339,00;-23,4210
340,00;-32,8202
341,00;-96,5620
342,00;-68,5833
343,00;10,3662
344,00;-27,9765
345,00;-91,1638
346,00;158,7708
347,00;-90,7427
348,00;-73,1933
349,00;-137,3719
350,00;-60,8255
351,00;-2,0183
352,00;-20,9689
353,00;-91,1203
354,00;67,8362
355,00;-156,5248
356,00;-22,9470
357,00;-52,3762
358,00;79,4082
359,00;17,8152
360,00;-62,9464
361,00;-135,1178
362,00;-137,4037
363,00;-119,4895
364,00;-118,4451
365,00;-13,8946
366,00;-32,9359
367,00;109,2501
368,00;-106,5065
369,00;13,1525
370,00;-14,8191
371,00;-26,4327
372,00;-129,9334
373,00;-67,8535
374,00;-106,4112
375,00;38,8923
376,00;-49,2390
377,00;42,6097
378,00;-100,7410
379,00;57,1016
380,00;83,3613
381,00;-84,7948
382,00;11,3770
383,00;-22,7463
384,00;34,2656
385,00;-25,8391
386,00;92,6270
387,00;-57,8964
388,00;-49,3276
389,00;-50,4823
390,00;56,9262
391,00;156,5724
392,00;85,6788
393,00;-85,6409
394,00;7,8763
395,00;166,8748
396,00;88,8570
397,00;-71,8874
398,00;-17,1239
399,00;25,6375
400,00;-49,3217
401,00;-50,2142
402,00;-116,9733
403,00;-74,4268
404,00;224,7183
405,00;244,6764
406,00;138,9777
407,00;5,1703
408,00;-23,4056
409,00;76,5619
410,00;-41,0908
411,00;55,0821
412,00;89,8105
413,00;44,7204
414,00;-24,7901
415,00;233,0287
416,00;759,0850
417,00;69,2656
418,00;366,5617
419,00;1132,7210
420,00;1765,1100
421,00;-46,4824
422,00;30,7090
423,00;60,4679
424,00;107,4486
425,00;534,8745
426,00;1480,6500
427,00;746,5140
428,00;199,0720
429,00;127,7981
430,00;428,5908
431,00;202,4259
432,00;7,0310
433,00;517,4203
434,00;281,0348
435,00;50,0312
436,00;121,7134
437,00;303,7715
438,00;110,2807
439,00;152,1426
440,00;29,3974
441,00;-11,6122
442,00;4,6600
443,00;149,9975
444,00;52,7909
445,00;138,0769
446,00;-4,5497
447,00;-36,5960
448,00;-77,4224
449,00;-5,9343
450,00;98,9134
451,00;621,7744
452,00;60,1286
453,00;15,1548
454,00;20,3192
455,00;-28,7798
456,00;-34,3047
457,00;53,7149
458,00;59,9477
459,00;60,6746
460,00;-17,9913
461,00;51,7536
462,00;-63,7108
463,00;100,0010
464,00;53,6884
465,00;269,4818
466,00;110,3804
467,00;50,7106
468,00;-58,4324
469,00;48,3446
470,00;23,0857
471,00;30,4710
472,00;17,8311
473,00;102,5585
474,00;-36,9605
475,00;159,2853
476,00;143,5838
477,00;115,4313
478,00;53,0055
479,00;60,1072
480,00;129,7340
481,00;97,3424
482,00;-21,1959
483,00;52,6034
484,00;53,5351
485,00;-49,4661
486,00;2,4038
487,00;114,3017
488,00;216,5676
489,00;173,8143
490,00;-81,6808
491,00;177,7091
492,00;75,9141
493,00;-46,6594
494,00;124,1310
495,00;125,2483
496,00;112,7562
497,00;147,7248
498,00;236,0154
499,00;130,7430
500,00;11,6933
501,00;78,7494
502,00;3,8594
503,00;3,0954
504,00;31,4137
505,00;164,6741
506,00;99,5045
507,00;46,3682
508,00;23,1363
509,00;105,7911
510,00;33,1930
511,00;-67,9491
512,00;89,8647
513,00;-0,1662
514,00;73,3665
515,00;99,7576
516,00;458,2306
517,00;46,9039
518,00;154,8493
519,00;293,5024
520,00;-17,4566
521,00;233,0069
522,00;525,1613
523,00;522,4243
524,00;522,4827
525,00;957,2269
526,00;791,0882
527,00;581,3944
528,00;559,9937
529,00;366,9579
530,00;279,7121
531,00;104,7051
532,00;17,0781
533,00;173,5076
534,00;-5,3659
535,00;40,4729
536,00;46,4110
537,00;100,8088
538,00;99,9950
539,00;4,5571
540,00;-102,6640
541,00;-25,7830
542,00;192,6148
543,00;134,7447
544,00;369,0117
545,00;312,0063
546,00;104,3744
547,00;-11,7198
548,00;124,3176
549,00;388,5519
550,00;538,8749
551,00;133,8233
552,00;156,6118
553,00;402,6052
554,00;217,1631
555,00;580,4887
556,00;1036,6670
557,00;1123,9470
558,00;1704,9120
559,00;1805,9880
560,00;1978,3430
561,00;1659,0800
562,00;1290,7730
563,00;675,2341
564,00;280,0581
565,00;288,0808
566,00;89,4599
567,00;131,2716
568,00;281,6508
569,00;117,6811
570,00;93,9510
571,00;166,6929
572,00;108,9961
573,00;81,2631
574,00;378,7207
575,00;120,3710
576,00;-29,9116
577,00;92,6857
578,00;3,6291
579,00;64,7170
580,00;191,3914
581,00;208,0926
582,00;161,0999
583,00;216,8093
584,00;214,8436
585,00;172,8567
586,00;491,7393
587,00;349,1305
588,00;444,0306
589,00;513,2954
590,00;297,9682
591,00;725,5500
592,00;318,2451
593,00;434,4033
594,00;223,3965
595,00;326,1052
596,00;531,0636
597,00;980,6032
598,00;785,3108
599,00;813,1256
600,00;637,2614
601,00;557,6219
602,00;565,2409
603,00;1326,2810
604,00;646,8772
605,00;476,1849
606,00;207,8682
607,00;-12,2629
608,00;61,5995
609,00;15,5150
610,00;168,8889
611,00;186,1190
612,00;37,6358
613,00;8,9565
614,00;35,2580
615,00;113,1827
616,00;269,3541
617,00;207,1269
618,00;314,3860
619,00;64,1357
620,00;-4,0805
621,00;228,6759
622,00;120,9985
623,00;40,0069
624,00;-133,2598
625,00;-64,3000
626,00;41,5650
627,00;141,4951
628,00;12,4761
629,00;73,8499
630,00;144,0704
631,00;145,6837
632,00;119,0093
633,00;106,9256
634,00;237,5067
635,00;470,6343
636,00;625,2176
637,00;367,9261
638,00;448,2620
639,00;344,5299
640,00;268,2717
641,00;454,5552
642,00;369,1795
643,00;122,6309
644,00;-31,4257
645,00;182,1891
646,00;114,0360
647,00;98,2532
648,00;-120,0555
649,00;122,3632
650,00;-25,4019
651,00;-37,4766
652,00;1,3223
653,00;122,1634
654,00;83,2477
655,00;-93,4733
656,00;-67,1032
657,00;76,7993
658,00;92,0654
659,00;173,2516
660,00;181,4766
661,00;26,6388
662,00;10,1794
663,00;-0,0095
664,00;18,6729
665,00;-20,9812
666,00;125,8281
667,00;108,7985
668,00;274,5043
669,00;68,0331
670,00;351,7941
671,00;20,0675
672,00;14,1732
673,00;16,2356
674,00;87,1077
675,00;723,6975
676,00;257,1750
677,00;298,5753
678,00;160,5846
679,00;206,8087
680,00;181,3564
681,00;175,4689
682,00;72,8459
683,00;200,6076
684,00;196,0882
685,00;142,4694
686,00;51,1501
687,00;426,5076
688,00;25,3534
689,00;-21,8318
690,00;7,4532
691,00;-61,1781
692,00;111,3095
693,00;97,8836
694,00;177,3155
695,00;37,0703
696,00;869,1491
697,00;587,8718
698,00;114,5414
699,00;54,0471
700,00;78,3605
701,00;39,1479
702,00;-12,3068
703,00;361,3209
704,00;20,5231
705,00;75,5604
706,00;526,7710
707,00;1066,9310
708,00;35,1088
709,00;117,2481
710,00;272,0545
711,00;-45,4085
712,00;65,8913
713,00;-69,4585
714,00;89,9941
715,00;163,5212
716,00;59,7318
717,00;-9,3601
718,00;11,0741
719,00;161,0864
720,00;123,7632
721,00;190,4831
722,00;-105,1398
723,00;5,9076
724,00;-4,2733
725,00;24,6105
726,00;93,1920
727,00;386,1671
728,00;179,7425
729,00;9,8149
730,00;-77,1309
731,00;143,0340
732,00;-46,2026
733,00;-44,9359
734,00;122,3209
735,00;171,5748
736,00;219,0284
737,00;569,2920
738,00;1472,4120
739,00;717,1376
740,00;62,1477
741,00;265,8029
742,00;197,6967
743,00;146,9169
744,00;477,8174
745,00;107,9580
746,00;66,7106
747,00;54,2665
748,00;6,1378
749,00;82,7603
750,00;5452,2890
751,00;4448,8420
752,00;1309,5460
753,00;122,4993
754,00;45,6308
755,00;41,9422
756,00;19,4220
757,00;10,7794
758,00;-153,4334
759,00;-36,4340
760,00;194,1660
761,00;241,8832
762,00;44,8898
763,00;2689,5640
764,00;1629,1570
765,00;-4,6390
766,00;36,5935
767,00;-57,1067
768,00;-82,2572
769,00;-23,6307
770,00;-49,1203
771,00;-33,3701
772,00;933,0140
773,00;438,7759
774,00;7,7227
775,00;-63,6791
776,00;160,0609
777,00;4110,9690
778,00;1513,0160
779,00;43,6521
780,00;28,7596
781,00;-66,2065
782,00;-60,7005
783,00;53,1061
784,00;86,2309
785,00;-109,9399
786,00;-74,8048
787,00;10,4556
788,00;-6,1309
789,00;-3,4015
790,00;-31,6318
791,00;-87,0146
792,00;-78,2330
793,00;-71,1340
794,00;357,5026
795,00;768,6170
796,00;53,1819
797,00;23,3862
798,00;-29,6743
799,00;-69,8536
800,00;338,0449
801,00;859,8006
802,00;407,0456
803,00;-43,7153
804,00;-130,7810
805,00;26,7570
806,00;-133,3909
807,00;73,0436
808,00;-54,9158
809,00;-10,0523
810,00;1134,5240
811,00;2620,2720
812,00;1791,8790
813,00;-3,4811
814,00;18,0553
815,00;-67,2357
816,00;-83,3861
817,00;30,4477
818,00;-51,9756
819,00;-10,9373
820,00;-60,9240
821,00;18,6230
822,00;-28,2573
823,00;-145,3351
824,00;-74,3772
825,00;-84,2803
826,00;353,3979
827,00;114,4237
828,00;-54,4415
829,00;-52,1247
830,00;-129,5836
831,00;27,7270
832,00;-177,5654
833,00;-45,9657
834,00;-106,5917
835,00;-100,4062
836,00;-5,6291
837,00;45,5698
838,00;-16,6642
839,00;67,6038
840,00;318,7636
841,00;708,3462
842,00;998,3905
843,00;645,9289
844,00;459,4126
845,00;631,2512
846,00;-8,6465
847,00;-63,5266
848,00;10,8092
849,00;-131,5512
850,00;-131,1945
851,00;-35,2637
852,00;267,2406
853,00;-117,1742
854,00;-20,0073
855,00;-46,7292
856,00;60,0927
857,00;3,6118
858,00;-87,7275
859,00;24,7358
860,00;46,4804
861,00;-46,1069
862,00;-74,8598
863,00;-11,8483
864,00;-100,4613
865,00;-59,2097
866,00;0,0266
867,00;-31,6173
868,00;-18,6587
869,00;35,9178
870,00;6,2367
871,00;-86,3808
872,00;-87,0527
873,00;-32,0678
874,00;-34,7181
875,00;37,6489
876,00;-63,2751
877,00;201,1271
878,00;-61,0255
879,00;-39,3718
880,00;53,5964
881,00;-26,5233
882,00;-25,9336
883,00;-18,2624
884,00;133,2607
885,00;-82,9247
886,00;-83,6301
887,00;-46,8077
888,00;-36,9095
889,00;-46,3455
890,00;-32,9571
891,00;55,3188
892,00;-80,6793
893,00;53,7717
894,00;-138,5964
895,00;-61,7380
896,00;-122,9870
897,00;-53,3399
898,00;-12,3822
899,00;-45,0210
900,00;-163,9435
901,00;79,4219
902,00;29,3558
903,00;-20,7775
904,00;-36,2522
905,00;4,1752
906,00;-177,3409
907,00;-119,4002
908,00;-113,7001
909,00;-102,6280
910,00;-175,9268
911,00;-22,9498
912,00;916,7024
913,00;352,1248
914,00;30,4388
915,00;-11,0152
916,00;-44,9455
917,00;-40,3737
918,00;-81,7748
919,00;7,6863
920,00;-77,2736
921,00;-77,3284
922,00;61,9206
923,00;38,4923
924,00;-46,5866
925,00;20,0616
926,00;153,1374
927,00;140,4011
928,00;-37,8219
929,00;-43,1578
930,00;-124,8682
931,00;-89,5958
932,00;-81,2941
933,00;-97,2973
934,00;-14,6784
935,00;-9,2367
936,00;120,0850
937,00;53,5024
938,00;53,7306
939,00;-19,8316
940,00;-62,1176
941,00;-121,9294
942,00;-137,2668
943,00;-115,0962
944,00;-142,6229
945,00;5,9314
946,00;-84,0056
947,00;67,2741
948,00;-17,3248
949,00;-87,2525
950,00;-86,6412
951,00;108,7772
952,00;-136,3581
953,00;-93,6475
954,00;-116,1167
955,00;-27,9373
956,00;-135,6142
957,00;-87,8710
958,00;-110,9449
959,00;23,5757
960,00;-103,5694
961,00;-93,7358
962,00;-37,9799
963,00;129,3839
964,00;-35,9390
965,00;-30,9000
966,00;158,0219
967,00;167,0640
968,00;-5,5558
969,00;-92,1116
970,00;-123,9361
971,00;-53,4503
972,00;-1,6454
973,00;-11,4968
974,00;-146,8202
975,00;114,1076
976,00;7,5851
977,00;-151,7999
978,00;-85,8128
979,00;3,7347
980,00;-132,1966
981,00;-48,3921
982,00;-143,4940
983,00;-68,8027
984,00;-174,5586
985,00;-34,2910
986,00;13,2294
987,00;81,4150
988,00;57,8586
989,00;-46,1664
990,00;71,4696
991,00;-109,1783
992,00;-32,6000
993,00;-18,7011
994,00;-166,1546
995,00;-33,3462
996,00;-119,3726
997,00;-44,3064
998,00;-44,8046
999,00;-133,2409
1000,00;104,2244
1001,00;67,5584
1002,00;-57,3601
1003,00;-11,3914
1004,00;-32,9724
1005,00;-68,2555
1006,00;-99,8840
1007,00;-48,6703
1008,00;27,7751
1009,00;-48,9765
1010,00;-18,5424
1011,00;49,3062
1012,00;6,8669
1013,00;-115,2507
1014,00;132,3993
1015,00;133,7257
1016,00;-95,6557
1017,00;-105,0184
1018,00;-34,5374
1019,00;-141,3133
1020,00;-72,4004
1021,00;-57,4378
1022,00;-173,1799
1023,00;-18,0830
1024,00;-58,6893
1025,00;33,7361
1026,00;76,0693
1027,00;-35,1993
1028,00;-12,7101
1029,00;1,8186
1030,00;-54,8947
1031,00;-99,3246
1032,00;-32,8207
1033,00;17,4855
1034,00;-131,9818
1035,00;-159,8617
1036,00;67,5704
1037,00;-88,6193
1038,00;-104,0375
1039,00;2,0081
1040,00;-93,0371
1041,00;9,5193
1042,00;-24,3946
1043,00;71,4121
1044,00;282,7723
1045,00;-39,4284
1046,00;-85,5126
1047,00;41,3950
1048,00;-12,1513
1049,00;-74,6340
1050,00;-74,9268
1051,00;-72,9400
1052,00;-32,8809
1053,00;-171,8808
1054,00;-28,7453
1055,00;-107,9007
1056,00;-110,0635
1057,00;-89,5426
1058,00;73,5186
1059,00;15,4425
1060,00;-40,3927
1061,00;-95,0136
1062,00;-50,1888
1063,00;-108,2667
1064,00;-13,2759
1065,00;-58,0993
1066,00;-21,0765
1067,00;-15,8384
1068,00;-138,3296
1069,00;-88,3722
1070,00;-69,3816
1071,00;-88,2989
1072,00;22,6852
1073,00;10,0803
1074,00;-41,0297
1075,00;-12,8183
1076,00;-63,5999
1077,00;-81,2310
1078,00;-58,7618
1079,00;-19,8830
1080,00;-124,0468
1081,00;-49,8577
1082,00;-80,6931
1083,00;-152,9782
1084,00;-19,2236
1085,00;-43,4520
1086,00;15,3185
1087,00;-68,8774
1088,00;-13,0095
1089,00;91,9555
1090,00;-102,5500
1091,00;81,7174
1092,00;-42,7693
1093,00;76,8530
1094,00;23,0317
1095,00;27,3253
1096,00;-115,7074
1097,00;-66,8662
1098,00;-83,2442
1099,00;-83,5304
1100,00;-80,1789
