M- 12.7Pa 10W 25-50
Integration time: 1000 ms
Average: 20 scans
Nr of pixels used for smoothing: 0
Data measured with spectrometer serial number: 0501039S2
Wave   ;Sample
[nm]   ;[counts]
200,00;-189,0955
201,00;-4,8739
202,00;-101,2421
203,00;-205,0991
204,00;-22,6817
205,00;-135,3274
206,00;-192,1800
207,00;-87,8316
208,00;-19,6627
209,00;121,7386
210,00;-176,7196
211,00;-83,6531
212,00;-129,2088
213,00;-39,7984
214,00;-70,5832
215,00;-61,7372
216,00;-95,4807
217,00;-120,4982
218,00;-52,7103
219,00;-114,2721
220,00;424,1186
221,00;27,7375
222,00;52,0053
223,00;-187,0495
224,00;-181,7462
225,00;89,1325
226,00;-35,3234
227,00;-65,3889
228,00;133,9465
229,00;-132,7275
230,00;12,6036
231,00;-82,8956
232,00;48,6009
233,00;60,1616
234,00;-99,9941
235,00;-37,6245
236,00;-104,5830
237,00;-60,9183
238,00;27,1459
239,00;-2,5484
240,00;-197,0372
241,00;-187,8369
242,00;-82,8161
243,00;-167,1965
244,00;170,9619
245,00;48,2804
246,00;-142,6913
247,00;-191,9881
248,00;8,4290
249,00;34,8934
250,00;-34,3369
251,00;169,7420
252,00;-147,9066
253,00;30,1026
254,00;-281,0160
255,00;-175,3312
256,00;-136,5417
257,00;62,2947
258,00;-62,9669
259,00;4,7534
260,00;-131,7962
261,00;-0,0129
262,00;64,9081
263,00;-154,9188
264,00;72,2096
265,00;53,2824
266,00;-6,4053
267,00;222,4674
268,00;-86,1125
269,00;146,0203
270,00;-97,8610
271,00;11,8977
272,00;-56,5836
273,00;-49,0177
274,00;-54,8638
275,00;81,5879
276,00;-27,8082
277,00;-125,2863
278,00;-83,4390
279,00;-99,0675
280,00;-89,5034
281,00;-9,6019
282,00;-8,4359
283,00;0,2243
284,00;-116,1821
285,00;-216,6026
286,00;-40,7024
287,00;-70,0751
288,00;-92,4130
289,00;-94,8522
290,00;-59,3883
291,00;-132,9698
292,00;-134,5607
293,00;-13,7153
294,00;-14,4382
295,00;9,1171
296,00;-133,9592
297,00;-126,8326
298,00;-143,9731
299,00;-126,0279
300,00;-75,6097
301,00;48,6369
302,00;-113,4740
303,00;-90,4918
304,00;-89,8071
305,00;-118,6867
306,00;-55,1850
307,00;67,4310
308,00;33,8768
309,00;-80,3042
310,00;-156,3092
311,00;-17,3687
312,00;-50,5978
313,00;-11,0738
314,00;-46,9100
315,00;-116,1204
316,00;36,6965
317,00;-193,7269
318,00;-108,1079
319,00;29,6502
320,00;-115,3292
321,00;-27,5212
322,00;-120,7702
323,00;-187,5411
324,00;-29,5104
325,00;99,7028
326,00;-44,8542
327,00;-157,5126
328,00;-82,4741
329,00;-3,4520
330,00;-82,7446
331,00;-113,5387
332,00;9,1626
333,00;-60,0096
334,00;-35,9516
335,00;-159,9919
336,00;-97,5136
337,00;87,3830
338,00;-27,7856
339,00;-34,7249
340,00;-42,3480
341,00;-126,5003
342,00;-71,8615
343,00;11,0260
344,00;-25,2067
345,00;-106,9344
346,00;212,9454
347,00;-108,2867
348,00;-94,7214
349,00;-174,5315
350,00;-80,2633
351,00;8,2720
352,00;-10,7896
353,00;-109,5038
354,00;83,3570
355,00;-198,5416
356,00;-19,0693
357,00;-57,3105
358,00;103,3852
359,00;28,8156
360,00;-80,8422
361,00;-169,1749
362,00;-173,4384
363,00;-148,0111
364,00;-145,8431
365,00;-17,2777
366,00;-25,0040
367,00;151,8390
368,00;-126,9946
369,00;18,1468
370,00;-9,8317
371,00;-34,2039
372,00;-171,1742
373,00;-92,5892
374,00;-136,7043
375,00;39,5293
376,00;-61,3639
377,00;42,5796
378,00;-137,5292
379,00;56,4930
380,00;110,7163
381,00;-119,2433
382,00;-0,7570
383,00;-117,2856
384,00;-10,9192
385,00;-70,7934
386,00;67,3697
387,00;-133,5410
388,00;-112,2183
389,00;-109,4229
390,00;23,9293
391,00;135,5582
392,00;59,1605
393,00;-173,8168
394,00;-137,7147
395,00;10,9394
396,00;48,2126
397,00;-165,6552
398,00;-81,0670
399,00;-19,1031
400,00;-108,6270
401,00;-80,3486
402,00;-170,8326
403,00;-127,4764
404,00;77,1550
405,00;168,1152
406,00;116,2412
407,00;-101,2033
408,00;-105,9781
409,00;26,1059
410,00;-124,6406
411,00;8,0019
412,00;45,1343
413,00;-28,5996
414,00;-96,7056
415,00;-36,4106
416,00;240,0159
417,00;-46,3874
418,00;141,7597
419,00;311,1841
420,00;485,8517
421,00;-202,1388
422,00;-43,7861
423,00;-6,4970
424,00;58,6037
425,00;193,4712
426,00;628,5964
427,00;248,2285
428,00;74,3329
429,00;24,6260
430,00;174,2086
431,00;166,5389
432,00;-86,9116
433,00;113,4828
434,00;1,7341
435,00;-169,4531
436,00;-38,8054
437,00;119,6526
438,00;40,5356
439,00;114,4549
440,00;-45,3316
441,00;-86,0543
442,00;-79,0352
443,00;120,9206
444,00;32,6567
445,00;163,0731
446,00;-41,1630
447,00;-95,3596
448,00;-169,6013
449,00;-42,9026
450,00;7,6659
451,00;327,0389
452,00;-59,6836
453,00;-23,8974
454,00;-74,6964
455,00;-94,5756
456,00;-89,8231
457,00;32,2343
458,00;-31,7333
459,00;-98,7237
460,00;-132,4133
461,00;-56,6918
462,00;-131,5289
463,00;41,1188
464,00;-58,8113
465,00;193,1679
466,00;37,7451
467,00;2,6152
468,00;-139,3180
469,00;-10,2053
470,00;-114,1555
471,00;-38,8558
472,00;-64,8828
473,00;13,8884
474,00;-135,4017
475,00;56,5865
476,00;-21,7802
477,00;-69,6597
478,00;-2,3193
479,00;28,2290
480,00;37,5382
481,00;31,3160
482,00;-97,0784
483,00;-58,2391
484,00;-24,7835
485,00;-121,7581
486,00;-52,1615
487,00;-16,3853
488,00;-4,5566
489,00;16,6707
490,00;-159,9036
491,00;191,6165
492,00;37,1776
493,00;-97,3885
494,00;115,5444
495,00;80,0134
496,00;-8,7633
497,00;13,7694
498,00;177,8798
499,00;63,3703
500,00;-64,6761
501,00;45,6436
502,00;-52,5993
503,00;-61,2338
504,00;-12,6468
505,00;89,4297
506,00;-57,5689
507,00;-45,5083
508,00;-43,7142
509,00;54,0244
510,00;-25,2347
511,00;-165,9597
512,00;21,7187
513,00;-63,8112
514,00;9,7880
515,00;-52,0482
516,00;279,0294
517,00;-54,9931
518,00;-20,2607
519,00;46,7419
520,00;-142,7433
521,00;45,6232
522,00;99,3927
523,00;158,0822
524,00;71,7120
525,00;265,8964
526,00;268,3988
527,00;140,9971
528,00;216,8120
529,00;121,3820
530,00;211,7479
531,00;22,1938
532,00;-104,7184
533,00;24,5356
534,00;-104,2064
535,00;-47,8793
536,00;6,2506
537,00;-10,0354
538,00;28,0911
539,00;-122,1771
540,00;-204,7319
541,00;-147,9694
542,00;86,8112
543,00;63,0778
544,00;249,5595
545,00;149,1744
546,00;-23,3456
547,00;-116,6522
548,00;92,3583
549,00;-11,6681
550,00;170,7979
551,00;-17,1909
552,00;34,4901
553,00;277,9491
554,00;-57,8998
555,00;148,7282
556,00;268,9011
557,00;324,4675
558,00;588,1847
559,00;615,8921
560,00;727,8373
561,00;558,9744
562,00;465,1199
563,00;120,3214
564,00;13,6086
565,00;34,8480
566,00;-20,1913
567,00;94,4710
568,00;184,0795
569,00;-81,1084
570,00;32,5401
571,00;148,2738
572,00;72,6488
573,00;-5,2846
574,00;171,4920
575,00;66,5090
576,00;-98,6809
577,00;-35,9055
578,00;-81,9202
579,00;-2,5303
580,00;116,6558
581,00;178,8530
582,00;69,6538
583,00;-16,9621
584,00;23,1074
585,00;25,6606
586,00;336,3712
587,00;113,6563
588,00;147,1996
589,00;168,7618
590,00;111,9207
591,00;248,9121
592,00;20,4037
593,00;126,6880
594,00;6,9520
595,00;95,2749
596,00;186,0938
597,00;428,7934
598,00;250,7651
599,00;312,3484
600,00;111,7477
601,00;110,6904
602,00;177,9610
603,00;484,2749
604,00;209,8214
605,00;325,1425
606,00;26,5107
607,00;-84,8674
608,00;4,3569
609,00;-103,4856
610,00;-77,6589
611,00;35,9434
612,00;-34,2047
613,00;-61,8824
614,00;-53,1633
615,00;-37,5394
616,00;15,5430
617,00;-38,6751
618,00;143,0371
619,00;-21,4792
620,00;-78,3636
621,00;85,5077
622,00;-14,2825
623,00;-6,2282
624,00;-239,9463
625,00;-144,9229
626,00;-0,9282
627,00;135,4721
628,00;-39,1006
629,00;-79,6255
630,00;-60,0548
631,00;-33,3786
632,00;24,4804
633,00;-32,3550
634,00;66,2734
635,00;200,3000
636,00;278,8931
637,00;-2,5784
638,00;66,8501
639,00;13,1178
640,00;-20,8533
641,00;159,8952
642,00;131,4863
643,00;82,0450
644,00;-88,0014
645,00;107,4103
646,00;5,8431
647,00;17,6660
648,00;-205,3637
649,00;110,9156
650,00;-89,0447
651,00;-93,2299
652,00;-41,2791
653,00;94,3783
654,00;12,2001
655,00;-159,3795
656,00;-119,7717
657,00;57,7583
658,00;68,3173
659,00;168,5033
660,00;118,5999
661,00;-47,1827
662,00;-53,5817
663,00;-48,4896
664,00;-20,5315
665,00;-81,3530
666,00;33,2746
667,00;5,9901
668,00;184,9020
669,00;-60,9291
670,00;270,3085
671,00;-109,0949
672,00;-132,1946
673,00;-84,8146
674,00;-26,9306
675,00;187,7678
676,00;13,0252
677,00;151,0762
678,00;-5,0913
679,00;31,4897
680,00;54,2516
681,00;52,0727
682,00;-74,9810
683,00;93,1536
684,00;119,8659
685,00;62,2387
686,00;-54,9111
687,00;16,9903
688,00;-105,9089
689,00;-134,6554
690,00;-21,2267
691,00;-90,2434
692,00;120,5966
693,00;30,5044
694,00;49,3042
695,00;-39,4049
696,00;215,4068
697,00;138,1923
698,00;91,0783
699,00;19,5410
700,00;48,1433
701,00;25,8554
702,00;-81,3069
703,00;141,2135
704,00;-43,6577
705,00;32,9626
706,00;15,5179
707,00;288,9429
708,00;-60,6603
709,00;124,5952
710,00;299,7166
711,00;-125,0993
712,00;4,6287
713,00;-182,1684
714,00;3,1516
715,00;59,2276
716,00;-48,6261
717,00;-78,5816
718,00;-55,1659
719,00;160,2278
720,00;10,2698
721,00;59,2613
722,00;-193,5898
723,00;-47,6699
724,00;-53,0046
725,00;-28,1342
726,00;-2,4744
727,00;122,1859
728,00;98,4130
729,00;-52,6476
730,00;-161,3850
731,00;1,0431
732,00;-153,3071
733,00;-102,8182
734,00;109,3379
735,00;6,5912
736,00;191,3941
737,00;231,6232
738,00;534,0762
739,00;292,4699
740,00;13,8088
741,00;273,0880
742,00;190,8255
743,00;95,3276
744,00;535,6191
745,00;107,5959
746,00;51,2645
747,00;35,9676
748,00;-82,8597
749,00;-53,3578
750,00;1932,8190
751,00;1772,1330
752,00;482,3907
753,00;50,5521
754,00;6,2426
755,00;8,7884
756,00;-16,6565
757,00;-25,2522
758,00;-251,3410
759,00;-89,5949
760,00;203,0086
761,00;258,1417
762,00;-34,4557
763,00;994,0532
764,00;662,3719
765,00;-105,7051
766,00;7,1766
767,00;-137,9432
768,00;-135,1947
769,00;-74,6266
770,00;-95,7126
771,00;-100,3962
772,00;225,0154
773,00;150,2817
774,00;-41,3728
775,00;-119,9242
776,00;78,9955
777,00;2207,0510
778,00;1007,0680
779,00;-21,1581
780,00;4,5157
781,00;-100,0312
782,00;-92,6232
783,00;48,4920
784,00;102,7285
785,00;-159,0544
786,00;-121,9695
787,00;-11,3878
788,00;-19,5903
789,00;-53,4885
790,00;-56,8391
791,00;-126,9458
792,00;-106,0732
793,00;-97,7813
794,00;184,1260
795,00;165,7541
796,00;18,0552
797,00;25,0076
798,00;-40,7763
799,00;-103,5295
800,00;225,1694
801,00;224,7234
802,00;103,1374
803,00;-85,3143
804,00;-187,7993
805,00;-6,9646
806,00;-183,5262
807,00;82,7555
808,00;-87,0222
809,00;-57,5405
810,00;357,7777
811,00;808,2827
812,00;703,7142
813,00;-99,8188
814,00;-15,8186
815,00;-102,6170
816,00;-113,7762
817,00;19,1025
818,00;-81,1951
819,00;-24,4205
820,00;-73,2760
821,00;13,2269
822,00;-51,6071
823,00;-188,0830
824,00;-95,4865
825,00;-120,1767
826,00;128,5548
827,00;-45,8249
828,00;-86,9118
829,00;-76,7385
830,00;-164,8397
831,00;32,7231
832,00;-228,0322
833,00;-72,7258
834,00;-146,0302
835,00;-132,0057
836,00;-9,0711
837,00;61,3491
838,00;-16,0303
839,00;75,6933
840,00;118,3553
841,00;214,7577
842,00;318,4527
843,00;253,0359
844,00;144,5746
845,00;385,0524
846,00;-54,6521
847,00;-81,7423
848,00;9,8183
849,00;-169,3932
850,00;-174,4500
851,00;-107,9576
852,00;16,6134
853,00;-205,2841
854,00;-34,9085
855,00;-57,8500
856,00;82,3785
857,00;6,7431
858,00;-120,1310
859,00;32,8811
860,00;62,1335
861,00;-71,7739
862,00;-108,5181
863,00;-22,1928
864,00;-134,2695
865,00;-64,0761
866,00;-25,9586
867,00;-98,1902
868,00;-30,9505
869,00;44,6212
870,00;11,8170
871,00;-118,1627
872,00;-109,6913
873,00;-44,3878
874,00;-34,9765
875,00;59,5666
876,00;-99,2910
877,00;246,2653
878,00;-85,9292
879,00;-46,6152
880,00;68,1369
881,00;-32,0469
882,00;-34,9275
883,00;-19,2814
884,00;164,3851
885,00;-120,7307
886,00;-108,9421
887,00;-63,7814
888,00;-39,5204
889,00;-66,3311
890,00;-52,2679
891,00;72,3724
892,00;-102,4561
893,00;94,1377
894,00;-180,8140
895,00;-74,4535
896,00;-148,7493
897,00;-59,3223
898,00;-17,4592
899,00;-63,3849
900,00;-202,2552
901,00;106,7011
902,00;43,6846
903,00;-18,5331
904,00;-35,9221
905,00;-23,4376
906,00;-230,9632
907,00;-163,0682
908,00;-150,0351
909,00;-127,5089
910,00;-219,7885
911,00;-53,4628
912,00;307,7712
913,00;221,3214
914,00;33,4474
915,00;-14,3614
916,00;-59,9600
917,00;-47,7731
918,00;-103,7844
919,00;-2,8537
920,00;-105,9295
921,00;-91,6684
922,00;-30,0367
923,00;-19,0731
924,00;-64,2477
925,00;23,3501
926,00;123,3476
927,00;144,4976
928,00;-44,4796
929,00;-60,1809
930,00;-150,6032
931,00;-114,2562
932,00;-95,8564
933,00;-115,6646
934,00;-18,1046
935,00;-14,6178
936,00;149,5121
937,00;76,8443
938,00;84,5126
939,00;-11,6362
940,00;-70,7994
941,00;-150,0664
942,00;-167,1163
943,00;-143,4824
944,00;-175,6236
945,00;8,0743
946,00;-100,5051
947,00;90,4852
948,00;-13,6937
949,00;-110,6898
950,00;-110,7116
951,00;116,2072
952,00;-166,3057
953,00;-118,8365
954,00;-144,8880
955,00;-32,3633
956,00;-176,1150
957,00;-99,4764
958,00;-139,9182
959,00;28,6133
960,00;-120,9254
961,00;-113,3776
962,00;-47,9648
963,00;176,5911
964,00;-36,1108
965,00;-88,6518
966,00;93,4227
967,00;201,6771
968,00;-2,3773
969,00;-112,2329
970,00;-147,9247
971,00;-64,1154
972,00;13,9161
973,00;-13,4751
974,00;-186,5568
975,00;147,6823
976,00;15,7820
977,00;-187,5822
978,00;-111,7226
979,00;-2,5832
980,00;-172,7200
981,00;-54,7155
982,00;-154,9274
983,00;-86,1595
984,00;-212,5795
985,00;-39,5469
986,00;31,6770
987,00;127,0565
988,00;83,2640
989,00;-51,9160
990,00;107,9303
991,00;-133,3742
992,00;-41,9744
993,00;-15,4739
994,00;-208,6844
995,00;-35,1930
996,00;-145,1408
997,00;-49,5184
998,00;-59,4853
999,00;-164,6197
1000,00;145,2993
1001,00;88,0169
1002,00;-72,6136
1003,00;-6,9697
1004,00;-35,6628
1005,00;-84,6221
1006,00;-123,9141
1007,00;-64,1612
1008,00;55,3023
1009,00;-60,2472
1010,00;-18,5308
1011,00;67,6688
1012,00;14,7367
1013,00;-143,4892
1014,00;172,8136
1015,00;172,6868
1016,00;-116,3050
1017,00;-129,5359
1018,00;-46,4147
1019,00;-169,3525
1020,00;-91,0537
1021,00;-56,7325
1022,00;-215,6317
1023,00;-22,6247
1024,00;-68,7883
1025,00;46,8342
1026,00;112,6377
1027,00;-35,7329
1028,00;-4,8886
1029,00;4,5435
1030,00;-56,4584
1031,00;-113,9018
1032,00;-37,2137
1033,00;27,8254
1034,00;-165,5657
1035,00;-189,7126
1036,00;95,9385
1037,00;-120,2816
1038,00;-121,1655
1039,00;10,5530
1040,00;-112,0954
1041,00;15,3987
1042,00;-28,1519
1043,00;107,5159
1044,00;358,7804
1045,00;-39,6451
1046,00;-113,3864
1047,00;63,4285
1048,00;-12,8075
1049,00;-86,6273
1050,00;-86,5317
1051,00;-101,1287
1052,00;-40,2122
1053,00;-212,9099
1054,00;-37,3082
1055,00;-145,6934
1056,00;-127,7529
1057,00;-107,7789
1058,00;103,6178
1059,00;20,4958
1060,00;-41,3837
1061,00;-116,0708
1062,00;-53,5222
1063,00;-134,3108
1064,00;-6,3909
1065,00;-63,8700
1066,00;-18,0200
1067,00;-20,6931
1068,00;-165,3530
1069,00;-97,7603
1070,00;-76,0142
1071,00;-113,8886
1072,00;42,2010
1073,00;20,5725
1074,00;-43,4498
1075,00;-19,1164
1076,00;-78,2820
1077,00;-94,4510
1078,00;-67,6249
1079,00;-20,1444
1080,00;-155,9124
1081,00;-59,3972
1082,00;-83,7405
1083,00;-184,3540
1084,00;-20,6244
1085,00;-57,1319
1086,00;25,8085
1087,00;-78,5033
1088,00;-14,9724
1089,00;119,4521
1090,00;-123,9319
1091,00;125,2763
1092,00;-62,2128
1093,00;96,6769
1094,00;34,7280
1095,00;31,3408
1096,00;-134,6171
1097,00;-79,1064
1098,00;-103,5631
1099,00;-103,2929
1100,00;-96,3447
