M- 9.2Pa 20W 25-50
Integration time: 1000 ms
Average: 20 scans
Nr of pixels used for smoothing: 0
Data measured with spectrometer serial number: 0501039S2
Wave   ;Sample
[nm]   ;[counts]
200,00;-164,3257
201,00;4,8072
202,00;-90,5307
203,00;-183,9148
204,00;-24,7984
205,00;-116,3831
206,00;-174,0648
207,00;-72,5188
208,00;-24,5372
209,00;105,2060
210,00;-154,3543
211,00;-23,1277
212,00;-122,4957
213,00;-34,7335
214,00;-55,8595
215,00;-49,3276
216,00;-77,9314
217,00;-112,3690
218,00;-124,9198
219,00;-103,3967
220,00;382,9943
221,00;21,6701
222,00;49,9632
223,00;-164,0250
224,00;-162,1707
225,00;78,4906
226,00;-35,1625
227,00;-65,7391
228,00;120,8383
229,00;-122,5663
230,00;15,0244
231,00;-70,9284
232,00;45,5725
233,00;53,9638
234,00;-91,0486
235,00;-37,0665
236,00;-95,0665
237,00;-52,5789
238,00;22,0200
239,00;2,0127
240,00;-178,0786
241,00;-163,4600
242,00;-77,2559
243,00;-153,6566
244,00;156,2789
245,00;49,1209
246,00;-121,4813
247,00;-168,5562
248,00;6,0927
249,00;31,3229
250,00;-25,9700
251,00;137,6722
252,00;-132,8721
253,00;28,7246
254,00;-251,4032
255,00;-160,8320
256,00;-119,0935
257,00;51,5429
258,00;-56,9354
259,00;6,2041
260,00;-115,3043
261,00;2,8707
262,00;57,8346
263,00;-140,8408
264,00;62,2489
265,00;48,4239
266,00;-13,8585
267,00;198,1802
268,00;-69,8298
269,00;130,5160
270,00;-88,6014
271,00;7,2136
272,00;-51,6128
273,00;-38,5155
274,00;-12,0059
275,00;76,9703
276,00;-26,8974
277,00;-111,8044
278,00;-74,3991
279,00;-91,1994
280,00;-82,4671
281,00;-10,6560
282,00;-3,4855
283,00;3,3442
284,00;-104,3282
285,00;-191,5380
286,00;-31,4190
287,00;-65,4495
288,00;-90,8727
289,00;-85,5438
290,00;-67,1140
291,00;-103,6039
292,00;-120,6738
293,00;-15,7219
294,00;-9,9396
295,00;11,8908
296,00;-114,0493
297,00;-117,7702
298,00;-127,2012
299,00;-112,4059
300,00;-71,6162
301,00;42,8239
302,00;-100,9658
303,00;-84,5514
304,00;-85,8079
305,00;-103,8866
306,00;-51,0919
307,00;63,7454
308,00;3,2624
309,00;-71,2076
310,00;-136,6705
311,00;-16,8479
312,00;-42,4549
313,00;-8,2312
314,00;-41,2798
315,00;-107,7819
316,00;40,7459
317,00;-171,4133
318,00;-99,0505
319,00;28,7132
320,00;-104,8166
321,00;-24,3994
322,00;-107,1560
323,00;-174,3797
324,00;-26,2499
325,00;85,4850
326,00;-32,2819
327,00;-143,3418
328,00;-77,4125
329,00;-5,9470
330,00;-71,9590
331,00;-95,9860
332,00;13,2023
333,00;-60,5217
334,00;-28,4587
335,00;-143,8085
336,00;-86,8757
337,00;75,3204
338,00;-14,3556
339,00;-27,6776
340,00;-32,2319
341,00;-105,9600
342,00;-68,3499
343,00;15,6486
344,00;-23,6952
345,00;-102,1171
346,00;197,1543
347,00;-97,8238
348,00;-89,4506
349,00;-156,9946
350,00;-67,3633
351,00;8,4413
352,00;-6,5336
353,00;-99,6735
354,00;84,3347
355,00;-179,2111
356,00;-17,7364
357,00;-52,7934
358,00;94,1424
359,00;26,0915
360,00;-71,5100
361,00;-147,7499
362,00;-155,5761
363,00;-142,9576
364,00;-135,8513
365,00;-7,8092
366,00;-27,5061
367,00;139,6495
368,00;-118,3050
369,00;17,9787
370,00;-2,1030
371,00;-28,7456
372,00;-150,0597
373,00;-79,9312
374,00;-121,3562
375,00;46,1896
376,00;-50,0856
377,00;44,7031
378,00;-121,8862
379,00;59,2767
380,00;107,4996
381,00;-104,5539
382,00;4,9110
383,00;-78,6272
384,00;3,7577
385,00;-48,8944
386,00;83,7929
387,00;-90,5081
388,00;-75,2058
389,00;-77,1060
390,00;50,0513
391,00;166,4569
392,00;73,3737
393,00;-129,4064
394,00;-71,6708
395,00;75,8550
396,00;75,6738
397,00;-110,4745
398,00;-46,3181
399,00;5,0688
400,00;-76,8815
401,00;-65,8771
402,00;-141,8261
403,00;-104,3979
404,00;83,6885
405,00;187,1727
406,00;127,5149
407,00;-60,5466
408,00;-67,5235
409,00;59,5151
410,00;-85,8150
411,00;35,4269
412,00;79,2379
413,00;4,3758
414,00;-65,9857
415,00;34,2006
416,00;344,8265
417,00;-13,2177
418,00;187,5874
419,00;484,5053
420,00;758,4211
421,00;-148,8260
422,00;-14,5317
423,00;23,0870
424,00;82,6197
425,00;269,4039
426,00;802,1021
427,00;366,0944
428,00;114,8041
429,00;56,9801
430,00;226,9255
431,00;170,2289
432,00;-38,2203
433,00;222,0053
434,00;83,4142
435,00;-72,9255
436,00;47,8273
437,00;220,1602
438,00;77,7777
439,00;132,1992
440,00;-12,1943
441,00;-46,4694
442,00;-38,9048
443,00;131,3353
444,00;45,5337
445,00;148,7891
446,00;-25,2327
447,00;-70,5639
448,00;-128,1860
449,00;-27,6616
450,00;36,4779
451,00;380,3829
452,00;-17,7939
453,00;-14,0688
454,00;-44,6276
455,00;-68,6210
456,00;-66,5336
457,00;45,7862
458,00;2,2977
459,00;-48,1959
460,00;-88,4649
461,00;-18,8943
462,00;-92,8615
463,00;65,9686
464,00;-11,1708
465,00;224,9144
466,00;74,0731
467,00;31,9439
468,00;-99,4486
469,00;23,7323
470,00;-69,8208
471,00;-9,1532
472,00;-21,4684
473,00;53,8106
474,00;-93,4663
475,00;84,7613
476,00;36,2236
477,00;-0,1249
478,00;31,6612
479,00;57,2791
480,00;83,3008
481,00;62,7545
482,00;-65,4769
483,00;-9,2204
484,00;9,1245
485,00;-83,4110
486,00;-30,3910
487,00;21,8661
488,00;57,0105
489,00;58,6671
490,00;-126,9721
491,00;185,8477
492,00;52,6228
493,00;-77,3776
494,00;127,0261
495,00;102,5405
496,00;46,6408
497,00;85,2345
498,00;205,0397
499,00;97,1857
500,00;-24,3087
501,00;61,3117
502,00;-33,2669
503,00;-37,6112
504,00;-2,8092
505,00;111,8352
506,00;-10,7604
507,00;-16,1778
508,00;-19,7715
509,00;72,9198
510,00;3,6610
511,00;-115,1840
512,00;48,6304
513,00;-34,1128
514,00;34,2706
515,00;-3,5757
516,00;323,4743
517,00;-20,1656
518,00;30,2080
519,00;116,8864
520,00;-84,6038
521,00;117,1237
522,00;267,2966
523,00;363,8708
524,00;339,5947
525,00;643,4515
526,00;611,6791
527,00;426,7410
528,00;426,8091
529,00;274,8982
530,00;262,0923
531,00;61,1889
532,00;-56,4193
533,00;107,0275
534,00;-59,9050
535,00;-8,8069
536,00;30,5406
537,00;37,8941
538,00;57,9884
539,00;-74,3758
540,00;-166,3777
541,00;-102,3828
542,00;121,5755
543,00;99,5178
544,00;290,6123
545,00;190,3403
546,00;18,8738
547,00;-74,7145
548,00;105,8093
549,00;95,0781
550,00;268,8723
551,00;46,8261
552,00;93,0010
553,00;338,9819
554,00;95,3377
555,00;412,2242
556,00;611,5593
557,00;760,0579
558,00;1305,6150
559,00;1392,6340
560,00;1433,2170
561,00;1188,3050
562,00;993,9554
563,00;482,2879
564,00;142,6642
565,00;119,9610
566,00;16,6813
567,00;121,6936
568,00;223,9965
569,00;-10,6920
570,00;59,6230
571,00;159,4747
572,00;90,5868
573,00;30,3997
574,00;238,4519
575,00;101,7283
576,00;-57,6502
577,00;12,0634
578,00;-40,6972
579,00;34,6979
580,00;158,5356
581,00;213,2125
582,00;132,8077
583,00;98,4858
584,00;129,9399
585,00;121,0354
586,00;423,4103
587,00;265,6803
588,00;308,0442
589,00;314,2723
590,00;226,9188
591,00;413,2787
592,00;166,3789
593,00;246,4690
594,00;119,8668
595,00;230,8429
596,00;414,2272
597,00;800,1881
598,00;608,8910
599,00;627,8624
600,00;431,6885
601,00;389,3074
602,00;403,0406
603,00;733,1889
604,00;340,9219
605,00;368,8598
606,00;78,7255
607,00;-49,9526
608,00;32,6365
609,00;-59,3544
610,00;-6,1390
611,00;91,7612
612,00;3,3388
613,00;-25,3330
614,00;-23,3895
615,00;20,1894
616,00;148,1669
617,00;75,4973
618,00;203,7849
619,00;23,0569
620,00;-29,0146
621,00;138,4357
622,00;44,1104
623,00;31,7303
624,00;-189,6500
625,00;-105,2621
626,00;29,9564
627,00;145,2646
628,00;-5,1588
629,00;-6,1902
630,00;14,4921
631,00;42,2665
632,00;78,5024
633,00;58,4626
634,00;180,9015
635,00;396,1206
636,00;517,7743
637,00;228,3908
638,00;289,4509
639,00;215,1684
640,00;175,5500
641,00;319,9578
642,00;242,9942
643,00;111,0832
644,00;-53,4501
645,00;160,6976
646,00;63,5391
647,00;49,3740
648,00;-165,7377
649,00;119,0798
650,00;-59,3851
651,00;-60,2932
652,00;-19,6455
653,00;113,0392
654,00;41,5796
655,00;-127,7951
656,00;-82,7570
657,00;69,3179
658,00;86,5460
659,00;182,0193
660,00;148,7678
661,00;-8,0619
662,00;-12,6691
663,00;-20,0080
664,00;1,9178
665,00;-43,2245
666,00;74,5248
667,00;55,5619
668,00;233,4222
669,00;12,7857
670,00;328,4324
671,00;-38,3618
672,00;-47,4565
673,00;-6,0566
674,00;43,8472
675,00;342,7936
676,00;119,9050
677,00;232,4999
678,00;99,1222
679,00;150,4455
680,00;132,3661
681,00;135,2356
682,00;18,6604
683,00;174,7125
684,00;197,8791
685,00;118,9917
686,00;0,3936
687,00;114,9045
688,00;-64,3865
689,00;-94,1964
690,00;-11,5416
691,00;-73,0694
692,00;122,2472
693,00;45,9174
694,00;74,1032
695,00;-13,9685
696,00;343,7549
697,00;215,9257
698,00;99,5509
699,00;29,1617
700,00;76,6589
701,00;39,5348
702,00;-55,3456
703,00;193,3135
704,00;-13,7165
705,00;58,4749
706,00;121,6746
707,00;431,9320
708,00;-24,0419
709,00;114,1444
710,00;289,1874
711,00;-88,1428
712,00;29,0565
713,00;-132,8783
714,00;42,9292
715,00;99,9099
716,00;-0,4783
717,00;-42,7034
718,00;-14,0776
719,00;172,6104
720,00;48,4416
721,00;107,7223
722,00;-146,1795
723,00;-19,7386
724,00;-24,4625
725,00;3,9153
726,00;41,7490
727,00;190,9037
728,00;138,2121
729,00;-15,6135
730,00;-111,4894
731,00;38,0084
732,00;-107,3677
733,00;-65,6517
734,00;121,9903
735,00;66,2833
736,00;200,1977
737,00;319,2109
738,00;687,3410
739,00;348,8390
740,00;31,7497
741,00;262,2539
742,00;183,0703
743,00;105,7888
744,00;501,0716
745,00;115,7152
746,00;60,7485
747,00;43,1654
748,00;-55,2022
749,00;-19,2478
750,00;2440,3800
751,00;2112,2530
752,00;604,3486
753,00;65,0518
754,00;10,6620
755,00;20,3694
756,00;-0,2555
757,00;-5,9678
758,00;-211,0764
759,00;-68,7263
760,00;184,9565
761,00;247,5527
762,00;-17,0196
763,00;1245,0810
764,00;801,5479
765,00;-84,1881
766,00;11,9304
767,00;-102,9800
768,00;-111,3122
769,00;-54,4957
770,00;-74,0869
771,00;-75,2378
772,00;352,3449
773,00;207,9022
774,00;-21,1451
775,00;-99,0349
776,00;125,6212
777,00;3419,5650
778,00;1420,7730
779,00;25,0391
780,00;18,4433
781,00;-82,2718
782,00;-77,4741
783,00;54,5073
784,00;103,9152
785,00;-135,3680
786,00;-100,7669
787,00;1,2167
788,00;-6,1706
789,00;-36,8276
790,00;-42,4510
791,00;-113,5730
792,00;-89,1334
793,00;-82,4904
794,00;205,9075
795,00;276,6037
796,00;19,6379
797,00;18,0929
798,00;-35,2179
799,00;-90,7365
800,00;237,7552
801,00;337,7222
802,00;155,4056
803,00;-72,7344
804,00;-167,1157
805,00;4,6708
806,00;-162,3860
807,00;76,0722
808,00;-74,3770
809,00;-48,5532
810,00;484,6824
811,00;1121,9050
812,00;879,8559
813,00;-80,4236
814,00;-2,2868
815,00;-82,9495
816,00;-100,1689
817,00;26,1924
818,00;-74,0492
819,00;-18,2635
820,00;-66,1522
821,00;25,3511
822,00;-41,6014
823,00;-164,3028
824,00;-79,8858
825,00;-105,5304
826,00;167,6956
827,00;-1,9809
828,00;-74,1126
829,00;-64,0286
830,00;-145,7749
831,00;38,2903
832,00;-204,5773
833,00;-58,3523
834,00;-120,3485
835,00;-119,9349
836,00;-8,7513
837,00;61,0085
838,00;-18,2250
839,00;70,7393
840,00;148,7264
841,00;295,8522
842,00;426,3885
843,00;316,4802
844,00;304,1617
845,00;588,2957
846,00;-29,9728
847,00;-68,0376
848,00;17,0068
849,00;-153,5249
850,00;-148,7770
851,00;-89,9844
852,00;71,7899
853,00;-178,9760
854,00;-28,7472
855,00;-53,7972
856,00;73,5496
857,00;4,4244
858,00;-106,1807
859,00;29,1007
860,00;55,5690
861,00;-61,4281
862,00;-96,8619
863,00;-17,4656
864,00;-114,2282
865,00;-69,6644
866,00;-22,3615
867,00;-76,0425
868,00;-22,7578
869,00;43,6949
870,00;12,9467
871,00;-105,5296
872,00;-94,8593
873,00;-31,9611
874,00;-31,1899
875,00;43,0858
876,00;-86,1408
877,00;228,7667
878,00;-70,7499
879,00;-43,5891
880,00;64,5989
881,00;-30,6772
882,00;-28,5498
883,00;-13,7615
884,00;144,9558
885,00;-109,8738
886,00;-102,6342
887,00;-53,7835
888,00;-37,9806
889,00;-59,6056
890,00;-42,5043
891,00;63,6693
892,00;-86,4519
893,00;74,9107
894,00;-159,8285
895,00;-63,3090
896,00;-132,0486
897,00;-61,3401
898,00;-16,3786
899,00;-57,1170
900,00;-174,6072
901,00;93,5461
902,00;48,5831
903,00;-19,9512
904,00;-36,3862
905,00;10,3049
906,00;-215,3256
907,00;-144,8737
908,00;-135,9866
909,00;-116,6661
910,00;-200,6861
911,00;-43,5698
912,00;418,0569
913,00;233,7125
914,00;29,5546
915,00;-15,0815
916,00;-53,3073
917,00;-46,3240
918,00;-88,6091
919,00;-2,5251
920,00;-87,4623
921,00;-81,9217
922,00;-9,7531
923,00;-12,4796
924,00;-57,4703
925,00;23,1114
926,00;143,0096
927,00;157,1206
928,00;-42,7546
929,00;-49,1599
930,00;-133,3207
931,00;-105,6004
932,00;-85,9626
933,00;-107,3707
934,00;-13,1568
935,00;-17,8177
936,00;134,4616
937,00;79,5065
938,00;72,0209
939,00;-15,3211
940,00;-66,1226
941,00;-136,5556
942,00;-151,5648
943,00;-138,6803
944,00;-156,4147
945,00;9,6497
946,00;-91,1863
947,00;82,6375
948,00;-11,8133
949,00;-89,9653
950,00;-102,7855
951,00;141,8942
952,00;-155,3190
953,00;-107,9865
954,00;-128,3118
955,00;-25,2353
956,00;-155,8385
957,00;-96,4834
958,00;-127,6099
959,00;26,2987
960,00;-109,9366
961,00;-99,1636
962,00;-47,9106
963,00;155,1927
964,00;-34,9122
965,00;-72,6034
966,00;102,3703
967,00;178,5791
968,00;1,3375
969,00;-93,6541
970,00;-136,8582
971,00;-57,5308
972,00;4,7091
973,00;-7,6182
974,00;-166,5560
975,00;135,7707
976,00;17,4007
977,00;-165,5355
978,00;-106,5793
979,00;2,1116
980,00;-161,7148
981,00;-60,4441
982,00;-147,2492
983,00;-71,4795
984,00;-190,9867
985,00;-39,7653
986,00;37,3180
987,00;112,7738
988,00;71,2902
989,00;-47,7300
990,00;92,0244
991,00;-115,9627
992,00;-38,0322
993,00;-21,6276
994,00;-193,5474
995,00;-33,5727
996,00;-126,1217
997,00;-48,6311
998,00;-45,5658
999,00;-148,8576
1000,00;130,2687
1001,00;78,7101
1002,00;-62,9749
1003,00;-10,2222
1004,00;-36,0594
1005,00;-73,4882
1006,00;-107,5245
1007,00;-50,5683
1008,00;40,2517
1009,00;-53,6254
1010,00;-18,6855
1011,00;62,2188
1012,00;9,2146
1013,00;-125,0223
1014,00;163,9354
1015,00;161,4528
1016,00;-103,9709
1017,00;-117,7268
1018,00;-45,9610
1019,00;-155,3334
1020,00;-86,3518
1021,00;-55,3630
1022,00;-191,1546
1023,00;-18,3537
1024,00;-67,4940
1025,00;43,9900
1026,00;101,8088
1027,00;-34,7778
1028,00;-1,4086
1029,00;0,1387
1030,00;-50,8082
1031,00;-106,3902
1032,00;-35,5346
1033,00;18,9173
1034,00;-150,4764
1035,00;-173,8280
1036,00;76,7738
1037,00;-104,5889
1038,00;-101,6578
1039,00;16,4539
1040,00;-103,8977
1041,00;21,3537
1042,00;-23,9924
1043,00;101,9294
1044,00;311,5047
1045,00;-37,0345
1046,00;-96,2429
1047,00;52,6863
1048,00;-15,2961
1049,00;-82,5842
1050,00;-82,2881
1051,00;-86,7723
1052,00;-38,0067
1053,00;-196,8429
1054,00;-30,2160
1055,00;-130,1270
1056,00;-113,2398
1057,00;-98,4084
1058,00;88,7012
1059,00;21,3964
1060,00;-32,3393
1061,00;-101,9473
1062,00;-54,9239
1063,00;-118,2091
1064,00;-5,7900
1065,00;-56,0845
1066,00;-23,3344
1067,00;-24,4579
1068,00;-147,7364
1069,00;-89,8388
1070,00;-79,7236
1071,00;-103,5514
1072,00;31,1367
1073,00;14,4128
1074,00;-45,2892
1075,00;-8,2724
1076,00;-69,4707
1077,00;-85,1258
1078,00;-63,3397
1079,00;-18,3737
1080,00;-141,2664
1081,00;-51,8857
1082,00;-76,6087
1083,00;-172,9960
1084,00;-16,8953
1085,00;-44,7671
1086,00;23,3256
1087,00;-74,7452
1088,00;-12,5604
1089,00;104,9049
1090,00;-119,5194
1091,00;110,4087
1092,00;-44,9770
1093,00;88,5943
1094,00;40,9621
1095,00;31,1527
1096,00;-122,9763
1097,00;-70,9164
1098,00;-96,0440
1099,00;-90,2315
1100,00;-85,6291
