M- 9.2Pa 25W 25-50
Integration time: 1000 ms
Average: 20 scans
Nr of pixels used for smoothing: 0
Data measured with spectrometer serial number: 0501039S2
Wave   ;Sample
[nm]   ;[counts]
200,00;-169,2840
201,00;-4,2388
202,00;-84,6899
203,00;-189,3446
204,00;-20,5419
205,00;-125,0911
206,00;-174,7141
207,00;-76,8952
208,00;-31,0402
209,00;106,2127
210,00;-156,3113
211,00;-27,4408
212,00;-123,3051
213,00;-42,2379
214,00;-69,5515
215,00;-58,2433
216,00;-83,2668
217,00;-115,4390
218,00;-127,2815
219,00;-102,2196
220,00;388,2093
221,00;22,1559
222,00;49,2002
223,00;-166,3774
224,00;-167,6911
225,00;83,4304
226,00;-31,6251
227,00;-60,0521
228,00;126,5343
229,00;-124,3170
230,00;13,3596
231,00;-76,6177
232,00;43,4160
233,00;54,1502
234,00;-93,1589
235,00;-26,9332
236,00;-95,3448
237,00;-50,3814
238,00;21,4138
239,00;1,8842
240,00;-176,8921
241,00;-165,5412
242,00;-72,6074
243,00;-153,7909
244,00;156,3670
245,00;49,4181
246,00;-127,3268
247,00;-172,9367
248,00;12,2934
249,00;28,3830
250,00;-37,0102
251,00;137,7144
252,00;-137,1545
253,00;26,6871
254,00;-253,6776
255,00;-164,0985
256,00;-125,1112
257,00;61,2637
258,00;-57,5861
259,00;0,3714
260,00;-119,5490
261,00;2,2708
262,00;55,0656
263,00;-144,1066
264,00;62,2603
265,00;52,5306
266,00;-11,8038
267,00;197,1620
268,00;-72,2294
269,00;125,4202
270,00;-89,7548
271,00;3,7122
272,00;-45,0886
273,00;-38,4866
274,00;-12,1460
275,00;67,1123
276,00;-30,9542
277,00;-108,2236
278,00;-79,8004
279,00;-86,2180
280,00;-84,8606
281,00;-13,6616
282,00;-5,9784
283,00;-1,0567
284,00;-107,8810
285,00;-196,2778
286,00;-32,5522
287,00;-65,4889
288,00;-90,5354
289,00;-86,5566
290,00;-76,3774
291,00;-112,8259
292,00;-118,5712
293,00;-8,9069
294,00;-15,6999
295,00;9,6281
296,00;-117,9530
297,00;-113,4613
298,00;-125,5503
299,00;-111,6729
300,00;-72,4458
301,00;43,2414
302,00;-102,3277
303,00;-82,8425
304,00;-85,1820
305,00;-104,7420
306,00;-47,9760
307,00;63,3511
308,00;30,0684
309,00;-77,6898
310,00;-129,1378
311,00;-12,3660
312,00;-49,9620
313,00;-9,3505
314,00;-39,1798
315,00;-111,3739
316,00;43,0182
317,00;-171,8875
318,00;-97,6152
319,00;21,6947
320,00;-108,0473
321,00;-26,4450
322,00;-108,2690
323,00;-168,1622
324,00;-23,0681
325,00;86,2112
326,00;-44,7936
327,00;-134,7839
328,00;-76,4178
329,00;-2,0648
330,00;-74,6386
331,00;-98,9224
332,00;6,0215
333,00;-59,2632
334,00;-28,7067
335,00;-149,9274
336,00;-83,5985
337,00;79,9772
338,00;-16,9428
339,00;-22,9577
340,00;-37,0075
341,00;-108,6752
342,00;-67,7829
343,00;9,9632
344,00;-26,5928
345,00;-98,5098
346,00;199,9449
347,00;-105,3726
348,00;-80,5485
349,00;-166,4217
350,00;-74,0206
351,00;4,0438
352,00;-10,4776
353,00;-106,2869
354,00;80,1657
355,00;-176,2908
356,00;-21,8535
357,00;-55,0674
358,00;94,5065
359,00;26,8678
360,00;-70,0613
361,00;-156,7714
362,00;-160,2499
363,00;-142,8752
364,00;-133,4722
365,00;-11,9250
366,00;-26,3674
367,00;148,1325
368,00;-117,6285
369,00;15,5258
370,00;-9,4685
371,00;-27,5596
372,00;-154,1578
373,00;-83,8222
374,00;-117,3330
375,00;48,3729
376,00;-50,0819
377,00;47,0936
378,00;-121,9185
379,00;62,9042
380,00;114,9993
381,00;-94,9623
382,00;9,0218
383,00;-76,9262
384,00;14,5586
385,00;-36,8731
386,00;89,0929
387,00;-85,0481
388,00;-75,4777
389,00;-74,5624
390,00;53,7730
391,00;166,3648
392,00;83,3495
393,00;-126,6609
394,00;-60,8586
395,00;94,0627
396,00;82,8958
397,00;-103,7228
398,00;-44,8619
399,00;13,0798
400,00;-73,4182
401,00;-72,7851
402,00;-150,2448
403,00;-102,1656
404,00;100,2684
405,00;199,3946
406,00;135,4226
407,00;-52,2194
408,00;-57,8643
409,00;64,3997
410,00;-78,0654
411,00;38,7677
412,00;82,4810
413,00;11,1281
414,00;-61,1871
415,00;34,8812
416,00;378,0879
417,00;-11,1616
418,00;203,0560
419,00;526,9180
420,00;831,6608
421,00;-136,7062
422,00;-11,9187
423,00;34,8922
424,00;88,9755
425,00;292,5683
426,00;851,9532
427,00;397,9223
428,00;122,8746
429,00;62,7072
430,00;244,8860
431,00;184,7091
432,00;-26,1656
433,00;242,8218
434,00;108,2027
435,00;-55,4640
436,00;71,7393
437,00;254,5493
438,00;78,5478
439,00;147,2143
440,00;-9,9771
441,00;-41,2094
442,00;-33,8324
443,00;134,0886
444,00;46,3802
445,00;158,4838
446,00;-19,6640
447,00;-65,5732
448,00;-128,7982
449,00;-29,3812
450,00;33,8485
451,00;400,1215
452,00;-14,9671
453,00;-2,2265
454,00;-32,5225
455,00;-68,9824
456,00;-69,9702
457,00;45,5226
458,00;10,0606
459,00;-41,1811
460,00;-81,5413
461,00;-7,6019
462,00;-88,1232
463,00;76,9157
464,00;1,6660
465,00;244,0460
466,00;81,4521
467,00;36,1923
468,00;-93,4304
469,00;27,1490
470,00;-59,1611
471,00;-6,7425
472,00;-23,5878
473,00;61,9469
474,00;-86,5996
475,00;90,1683
476,00;46,9885
477,00;12,4948
478,00;33,2465
479,00;58,7610
480,00;93,8497
481,00;77,7417
482,00;-59,3050
483,00;-0,3615
484,00;18,1200
485,00;-83,0638
486,00;-26,9379
487,00;19,9677
488,00;73,2324
489,00;72,4728
490,00;-125,5405
491,00;188,2906
492,00;48,3129
493,00;-72,4164
494,00;121,1414
495,00;99,5322
496,00;50,4802
497,00;95,4700
498,00;224,8513
499,00;106,7181
500,00;-24,5735
501,00;61,2020
502,00;-22,8687
503,00;-36,0490
504,00;12,5896
505,00;123,9029
506,00;1,6449
507,00;-14,5285
508,00;-15,2856
509,00;72,7473
510,00;7,8772
511,00;-123,0775
512,00;52,4437
513,00;-34,0087
514,00;43,5030
515,00;2,9183
516,00;331,5861
517,00;-9,2829
518,00;39,1569
519,00;129,7620
520,00;-81,8364
521,00;133,5717
522,00;301,7270
523,00;423,8207
524,00;395,8196
525,00;735,3451
526,00;686,3788
527,00;502,8834
528,00;475,5118
529,00;316,6567
530,00;287,4893
531,00;69,5456
532,00;-45,3950
533,00;134,0540
534,00;-56,5061
535,00;-11,9735
536,00;40,8705
537,00;40,9933
538,00;58,6431
539,00;-71,5428
540,00;-163,5283
541,00;-94,0149
542,00;130,7245
543,00;97,9981
544,00;296,9860
545,00;207,5397
546,00;23,6643
547,00;-72,5198
548,00;103,0125
549,00;112,8246
550,00;288,3362
551,00;49,9594
552,00;100,6909
553,00;357,7732
554,00;129,8108
555,00;462,3132
556,00;696,1856
557,00;863,5768
558,00;1500,7410
559,00;1608,3770
560,00;1615,8790
561,00;1365,3590
562,00;1135,9970
563,00;582,9230
564,00;171,9056
565,00;134,9707
566,00;25,5238
567,00;123,3438
568,00;225,1588
569,00;1,4904
570,00;77,9965
571,00;169,8882
572,00;96,1187
573,00;35,5319
574,00;245,0968
575,00;97,5966
576,00;-58,5994
577,00;12,1707
578,00;-39,4120
579,00;35,1029
580,00;155,1496
581,00;216,0395
582,00;135,7006
583,00;121,9743
584,00;146,6075
585,00;142,9375
586,00;447,3289
587,00;300,1415
588,00;341,8310
589,00;351,6134
590,00;250,8140
591,00;453,5772
592,00;194,8606
593,00;265,2588
594,00;144,5000
595,00;264,1194
596,00;466,2322
597,00;902,7754
598,00;698,6362
599,00;718,6240
600,00;502,8623
601,00;465,7585
602,00;453,0896
603,00;796,8705
604,00;357,0581
605,00;369,6872
606,00;91,7420
607,00;-49,4534
608,00;43,4420
609,00;-58,9360
610,00;2,7233
611,00;93,6847
612,00;0,5787
613,00;-32,3234
614,00;-23,1567
615,00;16,4161
616,00;170,9143
617,00;94,4592
618,00;230,7960
619,00;36,3545
620,00;-30,8361
621,00;149,0321
622,00;48,4421
623,00;35,8659
624,00;-183,2310
625,00;-100,9792
626,00;33,5397
627,00;153,4981
628,00;1,1367
629,00;4,4898
630,00;30,9007
631,00;58,8286
632,00;99,1859
633,00;75,5103
634,00;209,7464
635,00;438,7069
636,00;574,1702
637,00;281,5653
638,00;344,2743
639,00;269,9197
640,00;216,5188
641,00;354,8738
642,00;268,0107
643,00;112,2311
644,00;-51,1278
645,00;171,2021
646,00;77,2685
647,00;49,8554
648,00;-167,8531
649,00;118,4842
650,00;-54,6358
651,00;-58,5894
652,00;-12,8011
653,00;115,5131
654,00;49,5316
655,00;-121,3558
656,00;-91,5504
657,00;74,6722
658,00;84,2843
659,00;177,6369
660,00;145,5154
661,00;-13,1685
662,00;-6,7149
663,00;-15,7564
664,00;-0,3739
665,00;-45,0530
666,00;81,0774
667,00;60,9305
668,00;228,0357
669,00;23,4631
670,00;350,8421
671,00;-14,6786
672,00;-34,3196
673,00;-0,1783
674,00;56,2865
675,00;379,1409
676,00;145,3810
677,00;251,0860
678,00;124,6964
679,00;179,9077
680,00;159,8147
681,00;156,6199
682,00;32,8989
683,00;192,3571
684,00;218,9300
685,00;129,1095
686,00;4,9976
687,00;138,0528
688,00;-58,5448
689,00;-93,6788
690,00;-3,8546
691,00;-73,6806
692,00;124,9647
693,00;52,5817
694,00;83,9236
695,00;-15,0256
696,00;358,3969
697,00;257,1474
698,00;104,1490
699,00;31,5194
700,00;82,5843
701,00;42,2879
702,00;-59,5547
703,00;208,9015
704,00;-9,7340
705,00;55,0554
706,00;140,6690
707,00;477,1005
708,00;-18,3118
709,00;141,7286
710,00;295,2246
711,00;-86,4216
712,00;38,9908
713,00;-127,1909
714,00;46,4146
715,00;103,2201
716,00;12,7112
717,00;-36,7567
718,00;-6,1753
719,00;175,6503
720,00;62,0900
721,00;112,8653
722,00;-139,6410
723,00;-8,2303
724,00;-19,6893
725,00;11,9068
726,00;50,9027
727,00;211,6027
728,00;143,0192
729,00;-7,2628
730,00;-107,0495
731,00;50,1466
732,00;-108,1381
733,00;-64,7910
734,00;131,5680
735,00;62,9441
736,00;194,1175
737,00;326,5953
738,00;737,1455
739,00;383,9264
740,00;34,6749
741,00;271,4191
742,00;190,6057
743,00;111,9872
744,00;500,8115
745,00;110,2857
746,00;61,8899
747,00;53,2572
748,00;-46,1735
749,00;-6,0605
750,00;2597,9510
751,00;2269,4350
752,00;652,6044
753,00;74,0167
754,00;10,9173
755,00;21,5452
756,00;-1,5578
757,00;-6,8454
758,00;-213,7099
759,00;-66,5848
760,00;184,7956
761,00;248,2053
762,00;-15,4777
763,00;1315,6060
764,00;859,5918
765,00;-72,3343
766,00;23,1368
767,00;-103,4855
768,00;-111,0199
769,00;-51,8212
770,00;-60,4055
771,00;-78,1804
772,00;381,6620
773,00;225,0317
774,00;-18,7718
775,00;-89,5190
776,00;131,8838
777,00;3786,8080
778,00;1592,4340
779,00;35,8724
780,00;23,9571
781,00;-82,5550
782,00;-77,5116
783,00;58,7669
784,00;107,1952
785,00;-130,7252
786,00;-93,9048
787,00;1,6525
788,00;-11,1590
789,00;-42,7288
790,00;-52,3450
791,00;-109,1330
792,00;-94,8029
793,00;-82,9573
794,00;223,0995
795,00;305,3398
796,00;23,9795
797,00;29,7582
798,00;-37,1899
799,00;-84,1378
800,00;244,0521
801,00;359,0121
802,00;169,9079
803,00;-70,7038
804,00;-165,9232
805,00;-3,2710
806,00;-163,8544
807,00;80,2309
808,00;-74,9684
809,00;-44,8559
810,00;509,3902
811,00;1195,2270
812,00;956,9493
813,00;-69,8195
814,00;-5,0787
815,00;-86,6808
816,00;-99,9655
817,00;26,0706
818,00;-71,2603
819,00;-25,9752
820,00;-64,4051
821,00;25,2017
822,00;-40,9175
823,00;-169,4807
824,00;-80,1727
825,00;-106,6389
826,00;167,0836
827,00;-1,9883
828,00;-74,1042
829,00;-64,8207
830,00;-147,4174
831,00;25,1658
832,00;-207,6919
833,00;-60,8373
834,00;-121,9054
835,00;-123,1660
836,00;-7,1118
837,00;56,1193
838,00;-20,4968
839,00;66,5580
840,00;157,7420
841,00;316,5810
842,00;460,3304
843,00;342,6132
844,00;348,0708
845,00;646,8071
846,00;-20,4804
847,00;-73,3926
848,00;14,5734
849,00;-152,8391
850,00;-154,8365
851,00;-90,8255
852,00;77,0176
853,00;-180,0396
854,00;-36,6204
855,00;-57,3261
856,00;84,6667
857,00;5,8366
858,00;-106,6987
859,00;24,2838
860,00;56,3832
861,00;-60,3523
862,00;-98,2758
863,00;-18,9884
864,00;-117,8520
865,00;-60,1610
866,00;-20,3084
867,00;-77,5448
868,00;-25,0962
869,00;41,9926
870,00;15,1020
871,00;-105,8380
872,00;-99,9623
873,00;-37,8390
874,00;-31,6774
875,00;52,6877
876,00;-93,0821
877,00;231,5143
878,00;-75,0673
879,00;-45,1599
880,00;66,4484
881,00;-34,5974
882,00;-35,3124
883,00;-18,6392
884,00;152,9514
885,00;-106,4534
886,00;-105,8990
887,00;-51,8543
888,00;-35,8119
889,00;-59,3029
890,00;-44,7105
891,00;71,0902
892,00;-90,6808
893,00;75,4049
894,00;-159,8623
895,00;-67,4798
896,00;-131,9012
897,00;-61,4557
898,00;-20,5191
899,00;-54,8852
900,00;-181,0326
901,00;99,6867
902,00;43,7036
903,00;-25,1303
904,00;-37,5683
905,00;12,7377
906,00;-216,2397
907,00;-145,2747
908,00;-130,0909
909,00;-116,4132
910,00;-195,3653
911,00;-46,7799
912,00;442,2686
913,00;250,1414
914,00;21,1041
915,00;-11,6582
916,00;-53,8137
917,00;-44,8390
918,00;-91,0252
919,00;3,5944
920,00;-91,6059
921,00;-86,2081
922,00;-3,8264
923,00;-5,5076
924,00;-58,3921
925,00;29,4999
926,00;152,9724
927,00;159,6780
928,00;-39,1291
929,00;-49,9209
930,00;-138,5003
931,00;-100,1934
932,00;-90,1330
933,00;-104,1751
934,00;-17,8160
935,00;-17,1968
936,00;137,1887
937,00;69,7668
938,00;73,3757
939,00;-20,3297
940,00;-70,5208
941,00;-137,4959
942,00;-155,0982
943,00;-138,1997
944,00;-163,2398
945,00;11,7544
946,00;-87,0233
947,00;83,8325
948,00;-9,2065
949,00;-99,7055
950,00;-101,0941
951,00;106,6706
952,00;-155,0274
953,00;-105,5943
954,00;-129,8673
955,00;-28,0697
956,00;-157,7292
957,00;-95,9789
958,00;-125,6700
959,00;24,8957
960,00;-115,1465
961,00;-103,3737
962,00;-49,6452
963,00;158,6952
964,00;-35,6940
965,00;-72,1052
966,00;99,7716
967,00;191,1921
968,00;-5,1401
969,00;-96,1939
970,00;-136,4208
971,00;-56,6861
972,00;5,9286
973,00;-4,1627
974,00;-169,8721
975,00;126,0953
976,00;20,0275
977,00;-167,5649
978,00;-102,1076
979,00;-10,3584
980,00;-152,7664
981,00;-53,1469
982,00;-137,4458
983,00;-76,3839
984,00;-199,1718
985,00;-40,4318
986,00;25,2564
987,00;106,1655
988,00;65,0653
989,00;-44,0659
990,00;92,9386
991,00;-118,6490
992,00;-38,3569
993,00;-16,6850
994,00;-197,7011
995,00;-36,0590
996,00;-128,8736
997,00;-46,3800
998,00;-48,0890
999,00;-146,8849
1000,00;129,9926
1001,00;72,4975
1002,00;-62,9859
1003,00;-9,1861
1004,00;-32,0372
1005,00;-76,6028
1006,00;-109,8092
1007,00;-57,8577
1008,00;43,6897
1009,00;-49,7767
1010,00;-12,1167
1011,00;65,0562
1012,00;19,5274
1013,00;-129,0840
1014,00;157,6291
1015,00;158,9939
1016,00;-102,9177
1017,00;-122,2471
1018,00;-41,8600
1019,00;-153,2026
1020,00;-80,2861
1021,00;-54,4055
1022,00;-190,5275
1023,00;-17,8065
1024,00;-73,5106
1025,00;43,8571
1026,00;97,5111
1027,00;-31,5381
1028,00;-4,8444
1029,00;5,5146
1030,00;-49,3428
1031,00;-110,4235
1032,00;-32,3388
1033,00;22,4974
1034,00;-147,4956
1035,00;-182,3152
1036,00;85,6939
1037,00;-101,5662
1038,00;-111,0565
1039,00;10,0400
1040,00;-104,2900
1041,00;17,3798
1042,00;-19,5913
1043,00;98,9219
1044,00;331,4738
1045,00;-40,6257
1046,00;-98,9954
1047,00;54,1983
1048,00;-8,3508
1049,00;-83,3091
1050,00;-80,9528
1051,00;-84,4495
1052,00;-39,3445
1053,00;-192,9545
1054,00;-29,5933
1055,00;-136,0934
1056,00;-118,2561
1057,00;-109,4008
1058,00;92,9180
1059,00;18,8478
1060,00;-35,3728
1061,00;-110,4032
1062,00;-55,6946
1063,00;-121,7093
1064,00;-5,1412
1065,00;-56,2453
1066,00;-25,7733
1067,00;-20,5791
1068,00;-152,5892
1069,00;-92,5673
1070,00;-79,8743
1071,00;-104,4201
1072,00;35,4636
1073,00;24,1291
1074,00;-43,2158
1075,00;-9,1452
1076,00;-71,1179
1077,00;-84,7159
1078,00;-61,6245
1079,00;-19,9955
1080,00;-140,2659
1081,00;-51,5058
1082,00;-77,4939
1083,00;-177,6807
1084,00;-23,0007
1085,00;-46,5047
1086,00;22,1035
1087,00;-69,6265
1088,00;-8,8995
1089,00;105,1812
1090,00;-120,8271
1091,00;110,1470
1092,00;-57,2775
1093,00;96,0247
1094,00;29,4267
1095,00;22,7111
1096,00;-128,1274
1097,00;-72,0650
1098,00;-92,0978
1099,00;-95,5037
1100,00;-88,6794
