M- 12.7Pa 35W 25-50
Integration time: 1000 ms
Average: 20 scans
Nr of pixels used for smoothing: 0
Data measured with spectrometer serial number: 0501039S2
Wave   ;Sample
[nm]   ;[counts]
200,00;-182,9988
201,00;-0,0341
202,00;-92,3486
203,00;-193,5194
204,00;-19,4904
205,00;-124,0878
206,00;-182,9571
207,00;-75,0182
208,00;-22,8653
209,00;115,0651
210,00;-162,7615
211,00;-70,8862
212,00;-128,5304
213,00;-33,4265
214,00;-72,6534
215,00;-53,5873
216,00;-83,0195
217,00;-120,6840
218,00;-136,8871
219,00;-112,0881
220,00;407,1561
221,00;26,0604
222,00;49,7745
223,00;-180,0690
224,00;-173,2080
225,00;91,8712
226,00;-33,1736
227,00;-67,2391
228,00;134,6200
229,00;-125,0987
230,00;18,5833
231,00;-80,6278
232,00;58,5527
233,00;54,8305
234,00;-84,9820
235,00;-21,1968
236,00;-97,1277
237,00;-51,0355
238,00;29,2852
239,00;6,3811
240,00;-186,4207
241,00;-170,5505
242,00;-71,1082
243,00;-162,6084
244,00;171,6426
245,00;45,8256
246,00;-133,1583
247,00;-179,5021
248,00;9,1973
249,00;40,1792
250,00;-32,8285
251,00;157,9610
252,00;-134,3209
253,00;26,3100
254,00;-262,4038
255,00;-165,8819
256,00;-128,2819
257,00;56,0740
258,00;-64,2111
259,00;7,6335
260,00;-119,5505
261,00;4,1558
262,00;64,9234
263,00;-153,0774
264,00;71,0446
265,00;52,4647
266,00;-8,0726
267,00;212,5613
268,00;-79,0543
269,00;143,0130
270,00;-92,5201
271,00;10,4530
272,00;-52,5724
273,00;-43,4753
274,00;-49,9459
275,00;81,3535
276,00;-29,9808
277,00;-114,0992
278,00;-78,6685
279,00;-87,2706
280,00;-84,6285
281,00;-5,6145
282,00;-6,9201
283,00;7,7183
284,00;-104,8128
285,00;-206,3996
286,00;-36,3332
287,00;-69,4314
288,00;-91,0243
289,00;-90,5864
290,00;-74,5327
291,00;-119,6232
292,00;-119,1064
293,00;-16,2526
294,00;-16,7954
295,00;9,9604
296,00;-117,1568
297,00;-125,7115
298,00;-131,9917
299,00;-116,0960
300,00;-78,0599
301,00;46,2612
302,00;-105,9803
303,00;-84,9138
304,00;-88,4567
305,00;-111,7867
306,00;-50,2130
307,00;61,0655
308,00;35,9042
309,00;-78,6818
310,00;-147,4467
311,00;-13,8456
312,00;-45,4417
313,00;-8,4416
314,00;-43,2462
315,00;-113,6308
316,00;43,5765
317,00;-183,8059
318,00;-107,4223
319,00;28,2033
320,00;-109,4179
321,00;-25,8797
322,00;-113,5746
323,00;-181,8209
324,00;-27,7303
325,00;96,8417
326,00;-46,2004
327,00;-143,0295
328,00;-73,7228
329,00;-3,1373
330,00;-72,6685
331,00;-104,2943
332,00;10,9096
333,00;-53,2043
334,00;-27,9050
335,00;-156,3525
336,00;-87,3647
337,00;83,7213
338,00;-22,1629
339,00;-35,4089
340,00;-34,7931
341,00;-117,8740
342,00;-74,0926
343,00;20,6107
344,00;-24,2783
345,00;-103,8365
346,00;213,6081
347,00;-102,8458
348,00;-86,6467
349,00;-166,8130
350,00;-73,8901
351,00;18,0960
352,00;-5,2903
353,00;-100,9965
354,00;86,6721
355,00;-184,4031
356,00;-21,8008
357,00;-56,8875
358,00;110,0103
359,00;24,6006
360,00;-69,5439
361,00;-163,1039
362,00;-166,4576
363,00;-145,1128
364,00;-145,8908
365,00;-16,9906
366,00;-23,7049
367,00;156,2218
368,00;-123,5253
369,00;17,4649
370,00;0,3668
371,00;-24,3115
372,00;-162,7845
373,00;-84,8613
374,00;-123,7878
375,00;55,9628
376,00;-49,4461
377,00;46,5718
378,00;-124,8264
379,00;68,2465
380,00;140,0753
381,00;-97,8538
382,00;10,5478
383,00;-82,1893
384,00;10,3697
385,00;-39,5257
386,00;97,5808
387,00;-92,3487
388,00;-77,7371
389,00;-72,7002
390,00;67,8195
391,00;192,4474
392,00;90,6831
393,00;-117,3439
394,00;-46,9798
395,00;178,8163
396,00;95,0202
397,00;-105,9671
398,00;-41,7977
399,00;33,7338
400,00;-59,4550
401,00;-63,6532
402,00;-148,4124
403,00;-108,7302
404,00;111,4096
405,00;223,5267
406,00;156,9126
407,00;-31,9261
408,00;-44,1617
409,00;85,8679
410,00;-82,2118
411,00;51,2217
412,00;97,9123
413,00;19,8464
414,00;-50,6306
415,00;39,1684
416,00;411,9300
417,00;0,9806
418,00;216,5191
419,00;563,1795
420,00;900,4760
421,00;-133,3251
422,00;-5,7875
423,00;46,6496
424,00;91,6136
425,00;308,2801
426,00;948,0357
427,00;432,5995
428,00;153,5693
429,00;69,6401
430,00;263,0615
431,00;198,6881
432,00;-21,7488
433,00;270,5093
434,00;130,5668
435,00;-41,6702
436,00;76,6617
437,00;289,5773
438,00;103,2484
439,00;160,7174
440,00;-5,5849
441,00;-34,2277
442,00;-16,1669
443,00;153,0209
444,00;51,7113
445,00;171,6199
446,00;-13,5652
447,00;-64,1459
448,00;-122,1371
449,00;-18,7424
450,00;55,8909
451,00;438,2432
452,00;-9,3779
453,00;1,8147
454,00;-35,0979
455,00;-64,3783
456,00;-66,9090
457,00;53,9279
458,00;14,4204
459,00;-22,0081
460,00;-76,4860
461,00;7,7528
462,00;-94,6741
463,00;81,8129
464,00;10,5891
465,00;281,8124
466,00;100,4953
467,00;41,3777
468,00;-92,6718
469,00;25,9958
470,00;-51,6973
471,00;-1,3786
472,00;-20,9154
473,00;78,0228
474,00;-92,4657
475,00;102,4044
476,00;58,3589
477,00;20,5865
478,00;36,5001
479,00;67,9861
480,00;102,6262
481,00;77,9571
482,00;-68,9417
483,00;-3,1323
484,00;16,4635
485,00;-81,9933
486,00;-23,6795
487,00;28,0779
488,00;81,1922
489,00;78,8543
490,00;-124,4382
491,00;205,8958
492,00;49,0078
493,00;-82,8132
494,00;133,3871
495,00;106,6826
496,00;54,0361
497,00;102,5616
498,00;232,9075
499,00;116,4240
500,00;-27,4638
501,00;62,3498
502,00;-23,6296
503,00;-38,8778
504,00;13,7959
505,00;126,8389
506,00;-0,5230
507,00;-6,8390
508,00;-16,3456
509,00;83,2175
510,00;4,0439
511,00;-126,2463
512,00;52,8413
513,00;-28,6609
514,00;48,0446
515,00;7,4460
516,00;362,6096
517,00;-8,2253
518,00;43,7471
519,00;147,4732
520,00;-85,6551
521,00;133,8759
522,00;304,1120
523,00;423,5857
524,00;396,2065
525,00;739,1164
526,00;694,5231
527,00;498,0967
528,00;483,8566
529,00;317,0023
530,00;291,7112
531,00;71,9118
532,00;-37,9440
533,00;147,1507
534,00;-59,1968
535,00;-7,6566
536,00;37,1453
537,00;46,6262
538,00;60,9004
539,00;-77,9453
540,00;-175,1005
541,00;-98,5271
542,00;135,2532
543,00;107,9207
544,00;316,3310
545,00;213,9618
546,00;28,8566
547,00;-66,2143
548,00;115,1037
549,00;99,1422
550,00;296,0651
551,00;54,1291
552,00;108,2100
553,00;367,7742
554,00;101,7444
555,00;435,2101
556,00;705,5703
557,00;850,4319
558,00;1469,5860
559,00;1580,7430
560,00;1611,0560
561,00;1360,9170
562,00;1112,9600
563,00;556,9361
564,00;171,4174
565,00;141,6037
566,00;27,9942
567,00;117,2304
568,00;236,8931
569,00;-1,1141
570,00;63,7259
571,00;180,5199
572,00;102,9458
573,00;40,9070
574,00;266,4208
575,00;110,5669
576,00;-61,1108
577,00;19,1459
578,00;-37,5118
579,00;43,3289
580,00;180,9837
581,00;218,7222
582,00;141,1479
583,00;121,1560
584,00;154,4084
585,00;145,6063
586,00;474,2544
587,00;297,7050
588,00;349,4250
589,00;372,9800
590,00;264,1863
591,00;476,5568
592,00;188,4992
593,00;300,0064
594,00;147,5937
595,00;272,9546
596,00;465,8632
597,00;893,5455
598,00;683,1369
599,00;718,6787
600,00;487,8987
601,00;458,0646
602,00;442,7775
603,00;804,3481
604,00;372,5776
605,00;399,1438
606,00;96,2235
607,00;-57,4154
608,00;34,5430
609,00;-60,2499
610,00;1,0798
611,00;103,1928
612,00;6,5818
613,00;-28,8344
614,00;-24,8208
615,00;29,1861
616,00;189,2175
617,00;118,4072
618,00;244,3030
619,00;26,4971
620,00;-38,9203
621,00;146,8186
622,00;54,4679
623,00;28,4840
624,00;-192,3146
625,00;-119,4966
626,00;26,6724
627,00;156,3522
628,00;-3,8030
629,00;-0,1280
630,00;29,6824
631,00;61,2807
632,00;98,6392
633,00;79,4153
634,00;203,0899
635,00;442,8650
636,00;583,9874
637,00;276,8363
638,00;338,6322
639,00;255,1044
640,00;203,2438
641,00;358,2870
642,00;278,9790
643,00;128,7108
644,00;-48,5942
645,00;187,8229
646,00;88,8563
647,00;61,5758
648,00;-175,8407
649,00;132,6441
650,00;-55,0034
651,00;-54,5446
652,00;-15,4997
653,00;132,3381
654,00;55,3506
655,00;-129,0911
656,00;-87,9000
657,00;76,9452
658,00;96,5134
659,00;199,9171
660,00;170,2474
661,00;-1,4315
662,00;-7,5656
663,00;-14,0208
664,00;7,3433
665,00;-39,1397
666,00;85,9139
667,00;67,4316
668,00;271,1526
669,00;31,5543
670,00;377,0256
671,00;-20,7489
672,00;-44,1189
673,00;-8,7466
674,00;53,1927
675,00;402,3670
676,00;148,3495
677,00;270,6856
678,00;116,4612
679,00;173,2365
680,00;161,5754
681,00;150,8346
682,00;27,8284
683,00;196,1969
684,00;222,4010
685,00;127,6113
686,00;3,7140
687,00;149,8692
688,00;-57,1110
689,00;-96,7372
690,00;-3,0654
691,00;-84,2620
692,00;131,9226
693,00;49,3974
694,00;88,1142
695,00;-12,8897
696,00;422,7885
697,00;339,2636
698,00;107,9339
699,00;41,1312
700,00;85,3317
701,00;38,9717
702,00;-59,9141
703,00;221,5479
704,00;-14,5201
705,00;68,5593
706,00;153,6738
707,00;577,9883
708,00;-17,2208
709,00;147,1388
710,00;312,5168
711,00;-94,6653
712,00;35,6536
713,00;-138,0642
714,00;47,1711
715,00;119,6831
716,00;8,3405
717,00;-40,3305
718,00;-11,4658
719,00;180,6037
720,00;64,1638
721,00;121,4960
722,00;-157,0472
723,00;-12,1189
724,00;-24,0116
725,00;11,9448
726,00;52,4313
727,00;226,8823
728,00;156,5477
729,00;-15,8521
730,00;-122,4990
731,00;57,6058
732,00;-96,8738
733,00;-69,9371
734,00;139,2355
735,00;71,3829
736,00;214,6289
737,00;355,8137
738,00;839,4052
739,00;479,9423
740,00;35,2484
741,00;282,4440
742,00;204,1506
743,00;121,8458
744,00;540,6399
745,00;124,7567
746,00;72,3483
747,00;59,6891
748,00;-38,2943
749,00;-1,0192
750,00;3134,0700
751,00;2791,3550
752,00;843,5511
753,00;93,0462
754,00;14,4272
755,00;28,2941
756,00;1,8074
757,00;2,9020
758,00;-223,2435
759,00;-54,5984
760,00;260,2586
761,00;311,4972
762,00;12,2438
763,00;1523,0580
764,00;1096,4360
765,00;-41,6125
766,00;52,2309
767,00;-105,8574
768,00;-111,6510
769,00;-47,2873
770,00;-65,8628
771,00;-74,9301
772,00;447,9933
773,00;283,3217
774,00;-7,5155
775,00;-85,5023
776,00;167,7989
777,00;4575,3220
778,00;2025,8440
779,00;69,1261
780,00;31,8990
781,00;-91,8652
782,00;-74,3636
783,00;67,4677
784,00;118,8705
785,00;-138,4893
786,00;-101,4789
787,00;4,3201
788,00;-7,9047
789,00;-33,2112
790,00;-47,0179
791,00;-120,5010
792,00;-93,2586
793,00;-83,3544
794,00;239,0091
795,00;389,4760
796,00;35,9495
797,00;26,3604
798,00;-37,7416
799,00;-91,0639
800,00;275,1063
801,00;429,6435
802,00;219,5856
803,00;-69,6617
804,00;-173,0556
805,00;7,3240
806,00;-165,4022
807,00;88,4794
808,00;-81,3281
809,00;-46,2920
810,00;597,9094
811,00;1389,3150
812,00;1127,9570
813,00;-61,6382
814,00;7,3778
815,00;-90,0051
816,00;-101,4112
817,00;31,7148
818,00;-73,2180
819,00;-21,7241
820,00;-70,0794
821,00;24,8509
822,00;-35,0540
823,00;-177,8944
824,00;-86,3396
825,00;-112,7847
826,00;202,1456
827,00;19,4004
828,00;-75,3602
829,00;-72,1047
830,00;-153,1749
831,00;34,1091
832,00;-219,1015
833,00;-60,0303
834,00;-140,9371
835,00;-123,1277
836,00;-3,9069
837,00;64,4390
838,00;-9,3661
839,00;100,3555
840,00;168,2027
841,00;395,4325
842,00;539,9203
843,00;421,3676
844,00;421,5437
845,00;837,8606
846,00;-5,7911
847,00;-73,5603
848,00;18,1505
849,00;-156,9896
850,00;-165,4202
851,00;-92,5421
852,00;107,4545
853,00;-176,3005
854,00;-28,7472
855,00;-50,3714
856,00;95,2810
857,00;9,8536
858,00;-114,4710
859,00;27,0492
860,00;50,2612
861,00;-62,8636
862,00;-97,6827
863,00;-17,0165
864,00;-118,0885
865,00;-56,4563
866,00;-16,4812
867,00;-73,4001
868,00;-20,1088
869,00;50,6697
870,00;22,6104
871,00;-108,1714
872,00;-99,4238
873,00;-32,1081
874,00;-24,6753
875,00;59,8210
876,00;-91,1010
877,00;251,4264
878,00;-75,8944
879,00;-45,0270
880,00;74,2557
881,00;-30,3623
882,00;-29,4886
883,00;-12,4280
884,00;166,4146
885,00;-106,9711
886,00;-112,8181
887,00;-54,6495
888,00;-36,3164
889,00;-60,8941
890,00;-49,3901
891,00;81,6403
892,00;-90,7826
893,00;87,1248
894,00;-168,2208
895,00;-65,6116
896,00;-142,0752
897,00;-58,8636
898,00;-13,2768
899,00;-54,0743
900,00;-191,5954
901,00;112,7822
902,00;55,7964
903,00;-24,3657
904,00;-34,3074
905,00;16,8015
906,00;-225,3905
907,00;-148,5504
908,00;-140,1070
909,00;-117,9553
910,00;-204,4718
911,00;-42,2486
912,00;499,2962
913,00;287,9343
914,00;36,7359
915,00;-8,9387
916,00;-51,2772
917,00;-47,5923
918,00;-98,1035
919,00;2,5203
920,00;-97,1149
921,00;-87,2879
922,00;-0,7971
923,00;-0,6890
924,00;-55,6233
925,00;29,6230
926,00;175,2106
927,00;185,8395
928,00;-35,7426
929,00;-53,6229
930,00;-145,9142
931,00;-105,8123
932,00;-90,2119
933,00;-107,3756
934,00;-21,3302
935,00;-23,7659
936,00;146,0856
937,00;78,7540
938,00;80,4183
939,00;-19,2867
940,00;-69,8660
941,00;-140,1566
942,00;-159,9349
943,00;-138,8496
944,00;-175,0045
945,00;9,5361
946,00;-92,4991
947,00;93,0848
948,00;-9,7064
949,00;-101,5540
950,00;-105,6004
951,00;153,7845
952,00;-166,1191
953,00;-113,1689
954,00;-136,6352
955,00;-21,5021
956,00;-165,3834
957,00;-97,0657
958,00;-127,3730
959,00;33,7756
960,00;-118,2836
961,00;-106,9943
962,00;-47,9937
963,00;173,3160
964,00;-38,6893
965,00;-63,0782
966,00;124,3515
967,00;198,0751
968,00;0,0039
969,00;-91,2111
970,00;-142,7742
971,00;-61,5096
972,00;13,3434
973,00;-10,1991
974,00;-184,8208
975,00;146,4876
976,00;19,1486
977,00;-181,7613
978,00;-104,4753
979,00;1,8468
980,00;-167,1416
981,00;-58,0448
982,00;-147,4352
983,00;-77,8081
984,00;-202,8658
985,00;-38,3245
986,00;27,7588
987,00;118,5519
988,00;79,0066
989,00;-52,1261
990,00;102,1032
991,00;-124,9016
992,00;-34,7411
993,00;-18,9930
994,00;-204,6156
995,00;-28,9678
996,00;-133,8629
997,00;-50,2468
998,00;-52,5369
999,00;-160,2745
1000,00;142,8990
1001,00;91,0171
1002,00;-63,8003
1003,00;-4,1549
1004,00;-34,6669
1005,00;-76,7452
1006,00;-120,3708
1007,00;-55,1476
1008,00;49,5806
1009,00;-49,2405
1010,00;-18,1042
1011,00;63,5875
1012,00;20,8827
1013,00;-136,5208
1014,00;180,5289
1015,00;174,8160
1016,00;-109,8506
1017,00;-121,3913
1018,00;-37,5762
1019,00;-164,2497
1020,00;-80,1890
1021,00;-55,1626
1022,00;-202,8572
1023,00;-22,2181
1024,00;-67,4270
1025,00;40,2154
1026,00;114,2172
1027,00;-32,0843
1028,00;-0,5995
1029,00;-1,9488
1030,00;-51,6082
1031,00;-109,0923
1032,00;-36,2115
1033,00;27,2796
1034,00;-158,1253
1035,00;-186,3653
1036,00;94,1593
1037,00;-110,7707
1038,00;-114,8601
1039,00;20,2899
1040,00;-109,3018
1041,00;11,9205
1042,00;-23,7934
1043,00;111,9287
1044,00;356,7980
1045,00;-39,6208
1046,00;-101,5521
1047,00;58,7335
1048,00;-12,1694
1049,00;-84,5139
1050,00;-83,1227
1051,00;-90,0152
1052,00;-35,8767
1053,00;-201,9013
1054,00;-24,2177
1055,00;-140,4749
1056,00;-122,0425
1057,00;-108,6837
1058,00;99,7316
1059,00;19,6625
1060,00;-40,5576
1061,00;-112,8746
1062,00;-55,4309
1063,00;-133,2668
1064,00;-2,0260
1065,00;-53,8244
1066,00;-25,3916
1067,00;-26,2042
1068,00;-165,1611
1069,00;-92,9621
1070,00;-83,2271
1071,00;-103,7703
1072,00;39,6573
1073,00;24,8523
1074,00;-43,1061
1075,00;-17,3031
1076,00;-77,1139
1077,00;-93,6327
1078,00;-66,4664
1079,00;-18,2577
1080,00;-152,1554
1081,00;-52,8155
1082,00;-78,8806
1083,00;-183,9798
1084,00;-17,1789
1085,00;-46,7062
1086,00;29,7157
1087,00;-72,5139
1088,00;-8,8966
1089,00;120,4821
1090,00;-122,5824
1091,00;117,3953
1092,00;-59,6859
1093,00;91,5236
1094,00;37,2454
1095,00;28,8565
1096,00;-135,8156
1097,00;-75,2381
1098,00;-101,7114
1099,00;-95,0109
1100,00;-88,8266
